File: SolidProps/lib/ALUMINUM_PURE.csv
T/K,rho/(kg/m3),cp/(J/(kg.K)),K/(W/(m.K)),alpha_thermal/(1/K),resistivity/(ohm.m)
1,2698,0.1,58.1,0,4.2E-10
2.5,2698,0.133,145,0,4.2E-10
4,2698,0.276,232,0,4.2E-10
5.5,2698,0.448,319,0,4.2E-10
7,2698,0.673,406,9.71011e-08,4.2E-10
8.5,2698,0.981,491,2.5574e-07,4.21E-10
10,2698,1.4,575,4.15065e-07,4.21E-10
11.5,2698,1.93,657,5.75058e-07,4.21E-10
13,2698,2.62,735,7.35701e-07,4.22E-10
14.5,2698,3.5,810,8.96976e-07,4.23E-10
16,2698,4.61,881,1.05886e-06,4.25E-10
17.5,2698,5.97,946,1.22135e-06,4.27E-10
19,2698,7.62,1010,1.38441e-06,4.3E-10
20.5,2698,9.6,1060,1.54803e-06,4.35E-10
22,2698,11.9,1100,1.71219e-06,4.4E-10
23.5,2698,14.7,1130,1.87688e-06,4.47E-10
25,2698,17.8,1160,2.04207e-06,4.56E-10
26.5,2698,21.4,1180,2.20775e-06,4.66E-10
28,2698,25.4,1190,2.37389e-06,4.78E-10
29.5,2698,29.8,1190,2.54049e-06,4.93E-10
31,2698,35.1,1190,2.70752e-06,5.1E-10
32.5,2698,41,1170,2.87497e-06,5.3E-10
34,2698,47.4,1150,3.04281e-06,5.53E-10
35.5,2698,54.2,1120,3.21103e-06,5.79E-10
37,2698,61.5,1090,3.37962e-06,6.08E-10
38.5,2698,69.3,1050,3.54854e-06,6.4E-10
40,2698,77.5,1020,3.71779e-06,6.75E-10
41.5,2698,86.3,977,3.88735e-06,7.15E-10
43,2698,95.4,938,4.0572e-06,7.57E-10
44.5,2698,105,898,4.22732e-06,8.04E-10
46,2698,115,857,4.39769e-06,8.54E-10
47.5,2698,125,817,4.56829e-06,9.08E-10
49,2698,135,777,4.73912e-06,9.66E-10
50.5,2698,145,740,4.91014e-06,0.00000000103
52,2698,156,707,5.08134e-06,0.00000000109
53.5,2698,167,676,5.25271e-06,0.00000000116
55,2698,177,646,5.42422e-06,0.00000000124
56.5,2698,188,618,5.59586e-06,0.00000000132
58,2698,199,591,5.76761e-06,0.0000000014
59.5,2698,210,566,5.93945e-06,0.00000000149
61,2698,221,543,6.11137e-06,0.00000000158
62.5,2698,232,522,6.28334e-06,0.00000000167
64,2698,243,503,6.45534e-06,0.00000000178
65.5,2698,254,485,6.62737e-06,0.00000000188
67,2698,265,468,6.7994e-06,0.00000000199
68.5,2698,276,452,6.97141e-06,0.0000000021
70,2698,287,438,7.14339e-06,0.00000000222
71.5,2698,298,424,7.31532e-06,0.00000000234
73,2698,308,412,7.48717e-06,0.00000000246
74.5,2698,319,400,7.65894e-06,0.00000000259
76,2698,329,389,7.83061e-06,0.00000000272
77.5,2698,340,378,8.00215e-06,0.00000000286
79,2698,350,369,8.17355e-06,0.000000003
80.5,2698,360,360,8.34479e-06,0.00000000314
82,2698,370,351,8.51585e-06,0.00000000328
83.5,2698,380,343,8.68672e-06,0.00000000343
85,2698,390,335,8.85738e-06,0.00000000358
86.5,2698,400,328,9.0278e-06,0.00000000373
88,2698,409,322,9.19798e-06,0.00000000389
89.5,2698,419,316,9.36789e-06,0.00000000404
91,2698,428,310,9.53752e-06,0.0000000042
92.5,2698,437,304,9.70685e-06,0.00000000436
94,2698,446,299,9.87585e-06,0.00000000452
95.5,2698,455,294,1.00445e-05,0.00000000468
97,2698,464,290,1.02128e-05,0.00000000485
98.5,2698,473,285,1.03808e-05,0.00000000501
100,2698,481,282,1.05483e-05,0.00000000518
101.5,2698,489,278,1.07155e-05,0.00000000534
103,2698,497,274,1.08822e-05,0.00000000551
104.5,2698,505,270,1.10484e-05,0.00000000567
106,2698,513,267,1.12143e-05,0.00000000584
107.5,2698,521,264,1.13796e-05,0.000000006
109,2698,528,261,1.15444e-05,0.00000000617
110.5,2698,535,259,1.17087e-05,0.00000000633
112,2698,543,256,1.18725e-05,0.0000000065
113.5,2698,550,254,1.20357e-05,0.00000000667
115,2698,556,252,1.21984e-05,0.00000000684
116.5,2698,563,250,1.23605e-05,0.000000007
118,2698,570,248,1.2522e-05,0.00000000717
119.5,2698,576,246,1.26828e-05,0.00000000734
121,2698,583,245,1.2843e-05,0.00000000751
122.5,2698,589,243,1.30026e-05,0.00000000768
124,2698,595,242,1.31615e-05,0.00000000785
125.5,2698,601,241,1.33196e-05,0.00000000802
127,2698,607,240,1.34771e-05,0.00000000818
128.5,2698,613,239,1.36339e-05,0.00000000835
130,2698,618,238,1.37899e-05,0.00000000852
131.5,2698,624,238,1.39451e-05,0.00000000869
133,2698,629,237,1.40996e-05,0.00000000886
134.5,2698,635,237,1.42532e-05,0.00000000903
136,2698,640,236,1.44061e-05,0.0000000092
137.5,2698,645,236,1.45581e-05,0.00000000937
139,2698,650,236,1.47093e-05,0.00000000954
140.5,2698,655,236,1.48595e-05,0.00000000971
142,2698,660,236,1.50089e-05,0.00000000988
143.5,2698,665,236,1.51574e-05,0.00000001
145,2698,669,236,1.5305e-05,0.0000000102
146.5,2698,674,236,1.54517e-05,0.0000000104
148,2698,678,236,1.55973e-05,0.0000000106
149.5,2698,682,237,1.5742e-05,0.0000000107
151,2698,687,236,1.58858e-05,0.0000000109
152.5,2698,691,236,1.60285e-05,0.0000000111
154,2698,696,235,1.61701e-05,0.0000000112
155.5,2698,700,235,1.63107e-05,0.0000000114
157,2698,704,234,1.64503e-05,0.0000000115
158.5,2698,708,234,1.65888e-05,0.0000000117
160,2698,713,234,1.67262e-05,0.0000000119
161.5,2698,717,233,1.68624e-05,0.000000012
163,2698,720,233,1.69976e-05,0.0000000122
164.5,2698,724,233,1.71316e-05,0.0000000124
166,2698,728,232,1.72644e-05,0.0000000125
167.5,2698,732,232,1.7396e-05,0.0000000127
169,2698,735,232,1.75264e-05,0.0000000129
170.5,2698,739,232,1.76556e-05,0.000000013
172,2698,743,232,1.77836e-05,0.0000000132
173.5,2698,746,232,1.79103e-05,0.0000000133
175,2698,749,232,1.80357e-05,0.0000000135
176.5,2698,753,231,1.81599e-05,0.0000000137
178,2698,756,231,1.82827e-05,0.0000000138
179.5,2698,759,231,1.84042e-05,0.000000014
181,2698,762,231,1.85244e-05,0.0000000141
182.5,2698,765,231,1.86432e-05,0.0000000143
184,2698,768,231,1.87606e-05,0.0000000145
185.5,2698,771,231,1.88766e-05,0.0000000146
187,2698,774,231,1.89913e-05,0.0000000148
188.5,2698,777,231,1.91044e-05,0.000000015
190,2698,780,231,1.92162e-05,0.0000000151
191.5,2698,782,232,1.93264e-05,0.0000000153
193,2698,785,232,1.94352e-05,0.0000000154
194.5,2698,788,232,1.95425e-05,0.0000000156
196,2698,790,232,1.96482e-05,0.0000000158
197.5,2698,793,232,1.97525e-05,0.0000000159
199,2698,795,232,1.98551e-05,0.0000000161
200.5,2698,798,232,1.99562e-05,0.0000000162
202,2698,800,232,2.00558e-05,0.0000000164
203.5,2698,803,232,2.01537e-05,0.0000000166
205,2698,805,232,2.02499e-05,0.0000000167
206.5,2698,807,232,2.03446e-05,0.0000000169
208,2698,809,232,2.04376e-05,0.000000017
209.5,2698,812,232,2.05289e-05,0.0000000172
211,2698,814,232,2.06185e-05,0.0000000174
212.5,2698,816,232,2.07064e-05,0.0000000175
214,2698,818,232,2.07925e-05,0.0000000177
215.5,2698,820,232,2.0877e-05,0.0000000179
217,2698,822,232,2.09596e-05,0.000000018
218.5,2698,824,231,2.10405e-05,0.0000000182
220,2698,826,231,2.11196e-05,0.0000000183
221.5,2698,828,231,2.11969e-05,0.0000000185
223,2698,830,231,2.12723e-05,0.0000000187
224.5,2698,832,231,2.13459e-05,0.0000000188
226,2698,833,231,2.14176e-05,0.000000019
227.5,2698,835,231,2.14875e-05,0.0000000191
229,2698,837,231,2.15554e-05,0.0000000193
230.5,2698,839,231,2.16214e-05,0.0000000195
232,2698,840,231,2.16855e-05,0.0000000196
233.5,2698,842,231,2.17476e-05,0.0000000198
235,2698,844,231,2.18078e-05,0.0000000199
236.5,2698,845,231,2.18659e-05,0.0000000201
238,2698,847,231,2.19221e-05,0.0000000203
239.5,2698,848,231,2.19762e-05,0.0000000204
241,2698,850,231,2.22548e-05,0.0000000206
242.5,2698,852,231,2.23388e-05,0.0000000208
244,2698,853,231,2.24201e-05,0.0000000209
245.5,2698,855,231,2.24985e-05,0.0000000211
247,2698,856,231,2.25739e-05,0.0000000212
248.5,2698,858,231,2.2646e-05,0.0000000214
250,2698,859,231,2.27145e-05,0.0000000216
251.5,2698,860,231,2.27793e-05,0.0000000217
253,2698,862,231,2.28402e-05,0.0000000219
254.5,2698,863,232,2.28968e-05,0.0000000221
256,2698,865,232,2.2949e-05,0.0000000222
257.5,2698,866,232,2.29964e-05,0.0000000224
259,2698,868,232,2.30388e-05,0.0000000225
260.5,2698,869,232,2.30758e-05,0.0000000227
262,2698,870,232,2.31073e-05,0.0000000229
263.5,2698,872,232,2.31328e-05,0.000000023
265,2698,873,232,2.31522e-05,0.0000000232
266.5,2698,874,232,2.3165e-05,0.0000000234
268,2698,876,232,2.31709e-05,0.0000000235
269.5,2698,877,232,2.31696e-05,0.0000000237
271,2698,878,232,2.31607e-05,0.0000000239
272.5,2698,880,232,2.31439e-05,0.000000024
274,2698,881,232,2.31187e-05,0.0000000242
275.5,2698,882,232,2.30849e-05,0.0000000243
277,2698,883,232,2.30419e-05,0.0000000245
278.5,2698,885,232,2.29894e-05,0.0000000247
280,2698,886,232,2.2927e-05,0.0000000248
281.5,2698,887,232,2.28543e-05,0.000000025
283,2698,888,232,2.27707e-05,0.0000000252
284.5,2698,890,232,2.26759e-05,0.0000000253
286,2698,891,232,2.25693e-05,0.0000000255
287.5,2698,892,232,2.24506e-05,0.0000000257
289,2698,893,232,2.23192e-05,0.0000000258
290.5,2698,894,232,2.21745e-05,0.000000026
292,2698,896,233,2.20162e-05,0.0000000262
293.5,2698,897,233,2.18436e-05,0.0000000263
295,2698,898,233,2.16563e-05,0.0000000265
296.5,2698,899,233,2.14537e-05,0.0000000267
298,2698,900,233,2.12352e-05,0.0000000268
299.5,2698,902,233,2.10002e-05,0.000000027
300,2698,902,233,2.09181e-05,0.0000000271