File: SolidProps/lib/ALUMINUM_ALLOY_6061-T6.csv
T/K,rho/(kg/m3),cp/(J/(kg.K)),K/(W/(m.K)),alpha_thermal/(1/K),resistivity/(ohm.m)
1,2712.6,0.051,2.2,0,0.0000000138
2.5,2712.6,0.143,5.93,0,0.0000000138
4,2712.6,0.28,9.53,0,0.0000000138
5.5,2712.6,0.448,13.1,0,0.0000000138
7,2712.6,0.673,16.6,0,0.0000000138
8.5,2712.6,0.981,20.2,0,0.0000000138
10,2712.6,1.4,23.8,0,0.0000000138
11.5,2712.6,1.93,27.7,0,0.0000000138
13,2712.6,2.62,31.7,0,0.0000000138
14.5,2712.6,3.5,35.7,0,0.0000000138
16,2712.6,4.61,39.7,0,0.0000000138
17.5,2712.6,5.97,43.6,0,0.0000000138
19,2712.6,7.62,47.5,6.63027e-08,0.0000000138
20.5,2712.6,9.6,51.3,1.61338e-07,0.0000000139
22,2712.6,11.9,54.6,2.72326e-07,0.0000000139
23.5,2712.6,14.7,57.9,3.98275e-07,0.0000000139
25,2712.6,17.8,61.1,5.38228e-07,0.0000000139
26.5,2712.6,21.4,64.2,6.91261e-07,0.0000000139
28,2712.6,25.4,67.2,8.56487e-07,0.0000000139
29.5,2712.6,29.8,70,1.03305e-06,0.0000000139
31,2712.6,35.1,72.9,1.22012e-06,0.000000014
32.5,2712.6,41,75.8,1.4169e-06,0.000000014
34,2712.6,47.4,78.6,1.62264e-06,0.000000014
35.5,2712.6,54.2,81.2,1.8366e-06,0.000000014
37,2712.6,61.5,83.8,2.05808e-06,0.000000014
38.5,2712.6,69.3,86.2,2.28639e-06,0.000000014
40,2712.6,77.5,88.5,2.52089e-06,0.0000000141
41.5,2712.6,86.3,90.5,2.76097e-06,0.0000000141
43,2712.6,95.4,92.3,3.00602e-06,0.0000000141
44.5,2712.6,105,94.1,3.25548e-06,0.0000000142
46,2712.6,115,95.8,3.5088e-06,0.0000000142
47.5,2712.6,125,97.4,3.76547e-06,0.0000000143
49,2712.6,135,99,4.02499e-06,0.0000000144
50.5,2712.6,145,101,4.28689e-06,0.0000000144
52,2712.6,156,103,4.55072e-06,0.0000000145
53.5,2712.6,167,104,4.81606e-06,0.0000000146
55,2712.6,177,106,5.0825e-06,0.0000000147
56.5,2712.6,188,108,5.34966e-06,0.0000000148
58,2712.6,199,109,5.61717e-06,0.0000000149
59.5,2712.6,210,111,5.88469e-06,0.0000000151
61,2712.6,221,111,6.1519e-06,0.0000000152
62.5,2712.6,232,112,6.41849e-06,0.0000000153
64,2712.6,243,112,6.68418e-06,0.0000000154
65.5,2712.6,254,112,6.94869e-06,0.0000000155
67,2712.6,265,113,7.21178e-06,0.0000000157
68.5,2712.6,276,113,7.4732e-06,0.0000000158
70,2712.6,287,113,7.73274e-06,0.000000016
71.5,2712.6,298,114,7.9902e-06,0.0000000161
73,2712.6,308,114,8.24539e-06,0.0000000163
74.5,2712.6,319,115,8.49812e-06,0.0000000164
76,2712.6,329,116,8.74825e-06,0.0000000166
77.5,2712.6,340,117,8.99562e-06,0.0000000168
79,2712.6,350,118,9.24011e-06,0.0000000169
80.5,2712.6,360,118,9.48158e-06,0.0000000171
82,2712.6,370,119,9.71994e-06,0.0000000173
83.5,2712.6,380,119,9.95508e-06,0.0000000175
85,2712.6,390,119,1.01869e-05,0.0000000176
86.5,2712.6,400,120,1.04154e-05,0.0000000178
88,2712.6,409,120,1.06404e-05,0.000000018
89.5,2712.6,419,120,1.08619e-05,0.0000000182
91,2712.6,428,120,1.10799e-05,0.0000000183
92.5,2712.6,437,120,1.12944e-05,0.0000000185
94,2712.6,446,120,1.15052e-05,0.0000000187
95.5,2712.6,455,121,1.17124e-05,0.0000000188
97,2712.6,464,121,1.19159e-05,0.000000019
98.5,2712.6,473,121,1.21158e-05,0.0000000192
100,2712.6,481,121,1.23121e-05,0.0000000194
101.5,2712.6,489,121,1.25048e-05,0.0000000195
103,2712.6,497,121,1.26939e-05,0.0000000197
104.5,2712.6,505,122,1.28793e-05,0.0000000199
106,2712.6,513,122,1.30613e-05,0.0000000201
107.5,2712.6,521,122,1.32397e-05,0.0000000202
109,2712.6,528,122,1.34146e-05,0.0000000204
110.5,2712.6,535,123,1.35861e-05,0.0000000206
112,2712.6,543,123,1.37542e-05,0.0000000208
113.5,2712.6,550,123,1.3919e-05,0.0000000209
115,2712.6,556,123,1.40804e-05,0.0000000211
116.5,2712.6,563,124,1.42387e-05,0.0000000213
118,2712.6,570,124,1.43938e-05,0.0000000215
119.5,2712.6,576,124,1.45458e-05,0.0000000216
121,2712.6,583,124,1.46948e-05,0.0000000218
122.5,2712.6,589,125,1.48408e-05,0.000000022
124,2712.6,595,125,1.4984e-05,0.0000000222
125.5,2712.6,601,125,1.51243e-05,0.0000000223
127,2712.6,607,125,1.52619e-05,0.0000000225
128.5,2712.6,613,126,1.53968e-05,0.0000000227
130,2712.6,618,126,1.55291e-05,0.0000000228
131.5,2712.6,624,126,1.5659e-05,0.000000023
133,2712.6,629,127,1.57864e-05,0.0000000232
134.5,2712.6,635,127,1.59114e-05,0.0000000234
136,2712.6,640,127,1.60342e-05,0.0000000235
137.5,2712.6,645,128,1.61548e-05,0.0000000237
139,2712.6,650,128,1.62733e-05,0.0000000239
140.5,2712.6,655,128,1.63898e-05,0.0000000241
142,2712.6,660,128,1.65043e-05,0.0000000242
143.5,2712.6,665,129,1.66169e-05,0.0000000244
145,2712.6,669,129,1.67278e-05,0.0000000246
146.5,2712.6,674,129,1.68368e-05,0.0000000248
148,2712.6,678,130,1.69443e-05,0.0000000249
149.5,2712.6,682,130,1.70501e-05,0.0000000251
151,2712.6,687,130,1.71545e-05,0.0000000253
152.5,2712.6,691,130,1.72574e-05,0.0000000254
154,2712.6,696,130,1.73589e-05,0.0000000256
155.5,2712.6,700,130,1.74591e-05,0.0000000258
157,2712.6,704,131,1.7558e-05,0.000000026
158.5,2712.6,708,131,1.76557e-05,0.0000000261
160,2712.6,713,131,1.77523e-05,0.0000000263
161.5,2712.6,717,131,1.78479e-05,0.0000000265
163,2712.6,720,131,1.79423e-05,0.0000000267
164.5,2712.6,724,131,1.80359e-05,0.0000000268
166,2712.6,728,131,1.81284e-05,0.000000027
167.5,2712.6,732,131,1.82201e-05,0.0000000272
169,2712.6,735,132,1.83109e-05,0.0000000274
170.5,2712.6,739,132,1.8401e-05,0.0000000275
172,2712.6,743,132,1.84902e-05,0.0000000277
173.5,2712.6,746,132,1.85787e-05,0.0000000279
175,2712.6,749,132,1.86665e-05,0.0000000281
176.5,2712.6,753,132,1.87536e-05,0.0000000282
178,2712.6,756,132,1.88401e-05,0.0000000284
179.5,2712.6,759,133,1.89259e-05,0.0000000286
181,2712.6,762,133,1.90111e-05,0.0000000287
182.5,2712.6,765,133,1.90956e-05,0.0000000289
184,2712.6,768,133,1.91796e-05,0.0000000291
185.5,2712.6,771,133,1.9263e-05,0.0000000293
187,2712.6,774,133,1.93458e-05,0.0000000294
188.5,2712.6,777,133,1.9428e-05,0.0000000296
190,2712.6,780,134,1.95096e-05,0.0000000298
191.5,2712.6,782,134,1.95907e-05,0.00000003
193,2712.6,785,134,1.96711e-05,0.0000000301
194.5,2712.6,788,134,1.9751e-05,0.0000000303
196,2712.6,790,134,1.98302e-05,0.0000000305
197.5,2712.6,793,135,1.99088e-05,0.0000000307
199,2712.6,795,135,1.99868e-05,0.0000000308
200.5,2712.6,798,135,2.00641e-05,0.000000031
202,2712.6,800,136,2.01407e-05,0.0000000312
203.5,2712.6,803,136,2.02166e-05,0.0000000314
205,2712.6,805,136,2.02917e-05,0.0000000315
206.5,2712.6,807,137,2.03661e-05,0.0000000317
208,2712.6,809,137,2.04397e-05,0.0000000319
209.5,2712.6,812,138,2.05125e-05,0.0000000321
211,2712.6,814,138,2.05845e-05,0.0000000322
212.5,2712.6,816,139,2.06555e-05,0.0000000324
214,2712.6,818,139,2.07256e-05,0.0000000326
215.5,2712.6,820,139,2.07947e-05,0.0000000327
217,2712.6,822,140,2.08628e-05,0.0000000329
218.5,2712.6,824,140,2.09299e-05,0.0000000331
220,2712.6,826,141,2.09959e-05,0.0000000333
221.5,2712.6,828,141,2.10607e-05,0.0000000334
223,2712.6,830,142,2.11244e-05,0.0000000336
224.5,2712.6,832,142,2.11869e-05,0.0000000338
226,2712.6,833,143,2.12481e-05,0.000000034
227.5,2712.6,835,143,2.1308e-05,0.0000000341
229,2712.6,837,144,2.13666e-05,0.0000000343
230.5,2712.6,839,144,2.14239e-05,0.0000000345
232,2712.6,840,145,2.14797e-05,0.0000000347
233.5,2712.6,842,145,2.1534e-05,0.0000000348
235,2712.6,844,146,2.15869e-05,0.000000035
236.5,2712.6,845,146,2.16383e-05,0.0000000352
238,2712.6,847,147,2.16881e-05,0.0000000354
239.5,2712.6,848,147,2.17363e-05,0.0000000355
241,2712.6,850,147,2.1783e-05,0.0000000357
242.5,2712.6,852,148,2.1828e-05,0.0000000359
244,2712.6,853,148,2.18713e-05,0.000000036
245.5,2712.6,855,149,2.1913e-05,0.0000000362
247,2712.6,856,149,2.19529e-05,0.0000000364
248.5,2712.6,858,150,2.19912e-05,0.0000000366
250,2712.6,859,150,2.20278e-05,0.0000000367
251.5,2712.6,860,150,2.20627e-05,0.0000000369
253,2712.6,862,151,2.20959e-05,0.0000000371
254.5,2712.6,863,151,2.21273e-05,0.0000000373
256,2712.6,865,151,2.21571e-05,0.0000000374
257.5,2712.6,866,152,2.21853e-05,0.0000000376
259,2712.6,868,152,2.22118e-05,0.0000000378
260.5,2712.6,869,152,2.22367e-05,0.000000038
262,2712.6,870,153,2.22601e-05,0.0000000381
263.5,2712.6,872,153,2.2282e-05,0.0000000383
265,2712.6,873,153,2.23024e-05,0.0000000385
266.5,2712.6,874,154,2.23214e-05,0.0000000386
268,2712.6,876,154,2.23391e-05,0.0000000388
269.5,2712.6,877,154,2.23556e-05,0.000000039
271,2712.6,878,155,2.2371e-05,0.0000000392
272.5,2712.6,880,155,2.23853e-05,0.0000000393
274,2712.6,881,155,2.23986e-05,0.0000000395
275.5,2712.6,882,155,2.24112e-05,0.0000000397
277,2712.6,883,156,2.24232e-05,0.0000000399
278.5,2712.6,885,156,2.24345e-05,0.00000004
280,2712.6,886,156,2.24456e-05,0.0000000402
281.5,2712.6,887,157,2.24564e-05,0.0000000404
283,2712.6,888,157,2.24673e-05,0.0000000406
284.5,2712.6,890,157,2.24783e-05,0.0000000407
286,2712.6,891,157,2.24897e-05,0.0000000409
287.5,2712.6,892,158,2.25017e-05,0.0000000411
289,2712.6,893,158,2.25146e-05,0.0000000413
290.5,2712.6,894,158,2.25287e-05,0.0000000414
292,2712.6,896,159,2.25441e-05,0.0000000416
293.5,2712.6,897,159,2.25612e-05,0.0000000418
295,2712.6,898,159,2.25803e-05,0.0000000419
296.5,2712.6,899,159,2.26017e-05,0.0000000421
298,2712.6,900,160,2.26258e-05,0.0000000423
299.5,2712.6,902,160,2.26529e-05,0.0000000425
300,2712.6,902,160,2.26627e-05,0.0000000425