File: SolidProps/lib/ALUMINUM_ALLOY_5083-T0.csv
T/K,rho/(kg/m3),cp/(J/(kg.K)),K/(W/(m.K)),alpha_thermal/(1/K),resistivity/(ohm.m)
1,2657,0.051,0.677,0,0.0000000303
2.5,2657,0.143,1.85,0,0.0000000303
4,2657,0.28,3.12,0,0.0000000303
5.5,2657,0.448,4.44,0,0.0000000303
7,2657,0.673,5.8,0,0.0000000303
8.5,2657,0.981,7.19,0,0.0000000303
10,2657,1.4,8.6,0,0.0000000303
11.5,2657,1.93,9.98,3.79112e-08,0.0000000303
13,2657,2.62,11.4,1.33804e-07,0.0000000303
14.5,2657,3.5,12.8,2.36567e-07,0.0000000303
16,2657,4.61,14.1,3.45977e-07,0.0000000303
17.5,2657,5.97,15.5,4.61814e-07,0.0000000303
19,2657,7.62,16.9,5.8386e-07,0.0000000303
20.5,2657,9.6,18.3,7.11903e-07,0.0000000303
22,2657,11.9,19.6,8.45731e-07,0.0000000303
23.5,2657,14.7,21,9.85135e-07,0.0000000303
25,2657,17.8,22.3,1.12991e-06,0.0000000303
26.5,2657,21.4,23.6,1.27985e-06,0.0000000303
28,2657,25.4,24.9,1.43476e-06,0.0000000303
29.5,2657,29.8,26.2,1.59444e-06,0.0000000303
31,2657,35.1,27.4,1.75869e-06,0.0000000304
32.5,2657,41,28.6,1.92733e-06,0.0000000304
34,2657,47.4,29.8,2.10017e-06,0.0000000304
35.5,2657,54.2,31,2.27701e-06,0.0000000304
37,2657,61.5,32.2,2.45767e-06,0.0000000304
38.5,2657,69.3,33.4,2.64198e-06,0.0000000304
40,2657,77.5,34.5,2.82975e-06,0.0000000304
41.5,2657,86.3,35.7,3.02082e-06,0.0000000304
43,2657,95.4,36.8,3.215e-06,0.0000000305
44.5,2657,105,38,3.41212e-06,0.0000000305
46,2657,115,39.1,3.61203e-06,0.0000000305
47.5,2657,125,40.2,3.81455e-06,0.0000000306
49,2657,135,41.3,4.01952e-06,0.0000000307
50.5,2657,145,42.3,4.22679e-06,0.0000000307
52,2657,156,43.3,4.43618e-06,0.0000000308
53.5,2657,167,44.3,4.64757e-06,0.0000000309
55,2657,177,45.2,4.86078e-06,0.000000031
56.5,2657,188,46.1,5.07567e-06,0.0000000312
58,2657,199,47,5.29209e-06,0.0000000313
59.5,2657,210,47.9,5.50991e-06,0.0000000314
61,2657,221,48.8,5.72897e-06,0.0000000316
62.5,2657,232,49.7,5.94915e-06,0.0000000318
64,2657,243,50.6,6.1703e-06,0.0000000319
65.5,2657,254,51.5,6.39229e-06,0.0000000321
67,2657,265,52.3,6.61498e-06,0.0000000323
68.5,2657,276,53.2,6.83827e-06,0.0000000325
70,2657,287,54,7.062e-06,0.0000000327
71.5,2657,298,54.8,7.28607e-06,0.0000000328
73,2657,308,55.6,7.51035e-06,0.000000033
74.5,2657,319,56.4,7.73473e-06,0.0000000331
76,2657,329,57.1,7.95908e-06,0.0000000333
77.5,2657,340,57.8,8.18329e-06,0.0000000334
79,2657,350,58.5,8.40726e-06,0.0000000336
80.5,2657,360,59.2,8.63087e-06,0.0000000338
82,2657,370,59.8,8.85402e-06,0.0000000339
83.5,2657,380,60.5,9.07661e-06,0.0000000341
85,2657,390,61.1,9.29853e-06,0.0000000343
86.5,2657,400,61.7,9.51969e-06,0.0000000345
88,2657,409,62.2,9.73998e-06,0.0000000347
89.5,2657,419,62.8,9.95933e-06,0.0000000348
91,2657,428,63.4,1.01776e-05,0.000000035
92.5,2657,437,64,1.03948e-05,0.0000000352
94,2657,446,64.6,1.06107e-05,0.0000000354
95.5,2657,455,65.2,1.08254e-05,0.0000000355
97,2657,464,65.8,1.10386e-05,0.0000000357
98.5,2657,473,66.4,1.12504e-05,0.0000000359
100,2657,481,67,1.14607e-05,0.000000036
101.5,2657,489,67.6,1.16693e-05,0.0000000362
103,2657,497,68.1,1.18762e-05,0.0000000364
104.5,2657,505,68.7,1.20814e-05,0.0000000366
106,2657,513,69.2,1.22848e-05,0.0000000367
107.5,2657,521,69.8,1.24862e-05,0.0000000369
109,2657,528,70.3,1.26858e-05,0.0000000371
110.5,2657,535,70.8,1.28833e-05,0.0000000373
112,2657,543,71.3,1.30787e-05,0.0000000374
113.5,2657,550,71.9,1.3272e-05,0.0000000376
115,2657,556,72.4,1.34631e-05,0.0000000378
116.5,2657,563,72.9,1.3652e-05,0.000000038
118,2657,570,73.4,1.38386e-05,0.0000000381
119.5,2657,576,73.9,1.40228e-05,0.0000000383
121,2657,583,74.3,1.42047e-05,0.0000000385
122.5,2657,589,74.8,1.43842e-05,0.0000000387
124,2657,595,75.3,1.45612e-05,0.0000000388
125.5,2657,601,75.8,1.47358e-05,0.000000039
127,2657,607,76.2,1.49078e-05,0.0000000392
128.5,2657,613,76.7,1.50772e-05,0.0000000394
130,2657,618,77.2,1.5244e-05,0.0000000396
131.5,2657,624,77.6,1.54082e-05,0.0000000397
133,2657,629,78.1,1.55698e-05,0.0000000399
134.5,2657,635,78.5,1.57287e-05,0.0000000401
136,2657,640,79,1.58849e-05,0.0000000403
137.5,2657,645,79.4,1.60383e-05,0.0000000405
139,2657,650,79.8,1.61891e-05,0.0000000406
140.5,2657,655,80.3,1.63371e-05,0.0000000408
142,2657,660,80.7,1.64823e-05,0.000000041
143.5,2657,665,81.1,1.66247e-05,0.0000000412
145,2657,669,81.6,0.00001676436,0.0000000414
146.5,2657,674,82,1.69012e-05,0.0000000415
148,2657,678,82.4,1.70353e-05,0.0000000417
149.5,2657,682,82.8,1.71665e-05,0.0000000419
151,2657,687,83.3,1.72949e-05,0.0000000421
152.5,2657,691,83.8,1.74206e-05,0.0000000423
154,2657,696,84.2,1.75434e-05,0.0000000424
155.5,2657,700,84.7,1.76634e-05,0.0000000426
157,2657,704,85.1,1.77807e-05,0.0000000428
158.5,2657,708,85.6,1.78952e-05,0.000000043
160,2657,713,86,1.80068e-05,0.0000000431
161.5,2657,717,86.5,1.81158e-05,0.0000000433
163,2657,720,87,1.8222e-05,0.0000000435
164.5,2657,724,87.4,1.83254e-05,0.0000000437
166,2657,728,87.9,1.84262e-05,0.0000000439
167.5,2657,732,88.3,1.85243e-05,0.000000044
169,2657,735,88.8,1.86197e-05,0.0000000442
170.5,2657,739,89.2,1.87124e-05,0.0000000444
172,2657,743,89.7,1.88026e-05,0.0000000446
173.5,2657,746,90.1,1.88902e-05,0.0000000447
175,2657,749,90.6,1.89752e-05,0.0000000449
176.5,2657,753,91,1.90577e-05,0.0000000451
178,2657,756,91.5,1.91377e-05,0.0000000453
179.5,2657,759,91.9,1.92153e-05,0.0000000455
181,2657,762,92.4,1.92905e-05,0.0000000456
182.5,2657,765,92.8,1.93633e-05,0.0000000458
184,2657,768,93.2,1.94338e-05,0.000000046
185.5,2657,771,93.7,1.9502e-05,0.0000000462
187,2657,774,94.1,1.95679e-05,0.0000000463
188.5,2657,777,94.6,1.96317e-05,0.0000000465
190,2657,780,95,1.96933e-05,0.0000000467
191.5,2657,782,95.5,1.97529e-05,0.0000000469
193,2657,785,95.9,1.98104e-05,0.0000000471
194.5,2657,788,96.4,1.98659e-05,0.0000000472
196,2657,790,96.8,1.99196e-05,0.0000000474
197.5,2657,793,97.3,1.99713e-05,0.0000000476
199,2657,795,97.7,2.00213e-05,0.0000000478
200.5,2657,798,98.1,2.00695e-05,0.0000000479
202,2657,800,98.6,2.01161e-05,0.0000000481
203.5,2657,803,99,2.0161e-05,0.0000000483
205,2657,805,99.5,2.02044e-05,0.0000000485
206.5,2657,807,99.9,2.02464e-05,0.0000000487
208,2657,809,100,2.02869e-05,0.0000000488
209.5,2657,812,101,2.03262e-05,0.000000049
211,2657,814,101,2.03641e-05,0.0000000492
212.5,2657,816,102,2.04009e-05,0.0000000494
214,2657,818,102,2.04366e-05,0.0000000496
215.5,2657,820,103,2.04713e-05,0.0000000497
217,2657,822,103,2.05051e-05,0.0000000499
218.5,2657,824,104,2.0538e-05,0.0000000501
220,2657,826,104,2.05702e-05,0.0000000503
221.5,2657,828,104,2.06017e-05,0.0000000504
223,2657,830,105,2.06326e-05,0.0000000506
224.5,2657,832,105,2.0663e-05,0.0000000508
226,2657,833,106,2.0693e-05,0.000000051
227.5,2657,835,106,2.07227e-05,0.0000000512
229,2657,837,107,2.07521e-05,0.0000000513
230.5,2657,839,107,2.07815e-05,0.0000000515
232,2657,840,108,2.08108e-05,0.0000000517
233.5,2657,842,108,2.08403e-05,0.0000000519
235,2657,844,108,2.08699e-05,0.000000052
236.5,2657,845,109,2.08998e-05,0.0000000522
238,2657,847,109,2.093e-05,0.0000000524
239.5,2657,848,110,2.09608e-05,0.0000000526
241,2657,850,110,2.09922e-05,0.0000000528
242.5,2657,852,111,2.10243e-05,0.0000000529
244,2657,853,111,2.10572e-05,0.0000000531
245.5,2657,855,112,2.10911e-05,0.0000000533
247,2657,856,112,2.1126e-05,0.0000000535
248.5,2657,858,113,2.11621e-05,0.0000000536
250,2657,859,113,2.11995e-05,0.0000000538
251.5,2657,860,113,2.12383e-05,0.000000054
253,2657,862,114,2.12786e-05,0.0000000542
254.5,2657,863,114,2.13206e-05,0.0000000544
256,2657,865,115,2.13644e-05,0.0000000545
257.5,2657,866,115,2.141e-05,0.0000000547
259,2657,868,116,2.14577e-05,0.0000000549
260.5,2657,869,116,2.15075e-05,0.0000000551
262,2657,870,117,2.15596e-05,0.0000000552
263.5,2657,872,117,2.16141e-05,0.0000000554
265,2657,873,118,2.16712e-05,0.0000000556
266.5,2657,874,118,2.17309e-05,0.0000000558
268,2657,876,118,2.17935e-05,0.000000056
269.5,2657,877,119,2.1859e-05,0.0000000561
271,2657,878,119,2.19276e-05,0.0000000563
272.5,2657,880,120,2.19994e-05,0.0000000565
274,2657,881,120,2.20746e-05,0.0000000567
275.5,2657,882,121,2.21533e-05,0.0000000568
277,2657,883,121,2.22357e-05,0.000000057
278.5,2657,885,122,2.23218e-05,0.0000000572
280,2657,886,122,2.24119e-05,0.0000000574
281.5,2657,887,123,2.25061e-05,0.0000000576
283,2657,888,123,2.26046e-05,0.0000000577
284.5,2657,890,123,2.27074e-05,0.0000000579
286,2657,891,124,2.28148e-05,0.0000000581
287.5,2657,892,124,2.29268e-05,0.0000000583
289,2657,893,125,2.30437e-05,0.0000000584
290.5,2657,894,125,2.31657e-05,0.0000000586
292,2657,896,126,2.32928e-05,0.0000000588
293.5,2657,897,126,2.34252e-05,0.000000059
295,2657,898,127,2.35631e-05,0.0000000592
296.5,2657,899,127,2.37066e-05,0.0000000593
298,2657,900,127,2.38559e-05,0.0000000595
299.5,2657,902,128,2.40112e-05,0.0000000597
300,2657,902,128,2.40644e-05,0.0000000598