File: SolidProps/lib/CARBON_FIBER_PARALLEL.csv
T/K,rho/(kg/m3),cp/(J/(kg.K)),K/(W/(m.K)),alpha_thermal/(1/K),resistivity/(ohm.m)
1,1774,0.0184,0.018,-0.000001,0.00002
2.5,1774,0.474,0.0217,-0.000001,0.0000199
4,1774,1.61,0.0289,-0.000001,0.0000199
5.5,1774,3.18,0.035,-0.000001,0.0000199
7,1774,5.14,0.0403,-0.000001,0.0000198
8.5,1774,7.43,0.0452,-0.000001,0.0000198
10,1774,10,0.05,-0.000001,0.0000197
11.5,1774,12.6,0.0562,-0.000001,0.0000197
13,1774,15.5,0.0629,-0.000001,0.0000197
14.5,1774,18.4,0.0701,-0.000001,0.0000196
16,1774,21.5,0.0776,-0.000001,0.0000196
17.5,1774,24.6,0.0856,-0.000001,0.0000196
19,1774,27.8,0.0941,-0.000001,0.0000195
20.5,1774,31,0.103,-0.000001,0.0000195
22,1774,34,0.112,-0.000001,0.0000194
23.5,1774,37.1,0.122,-0.000001,0.0000194
25,1774,40.1,0.132,-0.000001,0.0000194
26.5,1774,43.2,0.143,-0.000001,0.0000193
28,1774,46.4,0.154,-0.000001,0.0000193
29.5,1774,49.6,0.166,-0.000001,0.0000192
31,1774,52.7,0.178,-0.000001,0.0000192
32.5,1774,55.9,0.192,-0.000001,0.0000192
34,1774,59.1,0.205,-0.000001,0.0000191
35.5,1774,62.5,0.219,-0.000001,0.0000191
37,1774,66,0.234,-0.000001,0.000019
38.5,1774,69.7,0.249,-0.000001,0.000019
40,1774,73.5,0.265,-0.000001,0.000019
41.5,1774,77.8,0.281,-0.000001,0.0000189
43,1774,82.3,0.298,-0.000001,0.0000189
44.5,1774,86.9,0.315,-0.000001,0.0000189
46,1774,91.7,0.333,-0.000001,0.0000188
47.5,1774,96.6,0.35,-0.000001,0.0000188
49,1774,102,0.368,-0.000001,0.0000187
50.5,1774,107,0.385,-0.000001,0.0000187
52,1774,112,0.401,-0.000001,0.0000187
53.5,1774,117,0.418,-0.000001,0.0000186
55,1774,122,0.435,-0.000001,0.0000186
56.5,1774,128,0.453,-0.000001,0.0000186
58,1774,133,0.472,-0.000001,0.0000185
59.5,1774,138,0.491,-0.000001,0.0000185
61,1774,143,0.518,-0.000001,0.0000184
62.5,1774,148,0.546,-0.000001,0.0000184
64,1774,153,0.575,-0.000001,0.0000184
65.5,1774,158,0.605,-0.000001,0.0000183
67,1774,163,0.636,-0.000001,0.0000183
68.5,1774,168,0.668,-0.000001,0.0000182
70,1774,173,0.7,-0.000001,0.0000182
71.5,1774,179,0.726,-0.000001,0.0000182
73,1774,185,0.753,-0.000001,0.0000181
74.5,1774,190,0.781,-0.000001,0.0000181
76,1774,196,0.81,-0.000001,0.000018
77.5,1774,202,0.842,-0.000001,0.000018
79,1774,207,0.876,-0.000001,0.000018
80.5,1774,212,0.917,-0.000001,0.0000179
82,1774,217,0.968,-0.000001,0.0000179
83.5,1774,221,1.02,-0.000001,0.0000179
85,1774,225,1.08,-0.000001,0.0000178
86.5,1774,229,1.13,-0.000001,0.0000178
88,1774,233,1.18,-0.000001,0.0000177
89.5,1774,237,1.24,-0.000001,0.0000177
91,1774,242,1.27,-0.000001,0.0000177
92.5,1774,247,1.31,-0.000001,0.0000176
94,1774,252,1.34,-0.000001,0.0000176
95.5,1774,258,1.36,-0.000001,0.0000175
97,1774,263,1.39,-0.000001,0.0000175
98.5,1774,268,1.41,-0.000001,0.0000175
100,1774,274,1.43,-0.000001,0.0000174
101.5,1774,279,1.46,-0.000001,0.0000174
103,1774,284,1.5,-0.000001,0.0000174
104.5,1774,289,1.54,-0.000001,0.0000173
106,1774,294,1.58,-0.000001,0.0000173
107.5,1774,300,1.62,-0.000001,0.0000172
109,1774,305,1.66,-0.000001,0.0000172
110.5,1774,310,1.71,-0.000001,0.0000172
112,1774,315,1.75,-0.000001,0.0000171
113.5,1774,320,1.8,-0.000001,0.0000171
115,1774,325,1.85,-0.000001,0.000017
116.5,1774,329,1.9,-0.000001,0.000017
118,1774,334,1.95,-0.000001,0.000017
119.5,1774,339,2,-0.000001,0.0000169
121,1774,344,2.05,-0.000001,0.0000169
122.5,1774,349,2.11,-0.000001,0.0000168
124,1774,354,2.16,-0.000001,0.0000168
125.5,1774,359,2.21,-0.000001,0.0000168
127,1774,364,2.27,-0.000001,0.0000167
128.5,1774,368,2.33,-0.000001,0.0000167
130,1774,373,2.38,-0.000001,0.0000167
131.5,1774,378,2.44,-0.000001,0.0000166
133,1774,383,2.5,-0.000001,0.0000166
134.5,1774,387,2.55,-0.000001,0.0000165
136,1774,392,2.61,-0.000001,0.0000165
137.5,1774,397,2.67,-0.000001,0.0000165
139,1774,402,2.73,-0.000001,0.0000164
140.5,1774,406,2.79,-0.000001,0.0000164
142,1774,411,2.84,-0.000001,0.0000163
143.5,1774,416,2.9,-0.000001,0.0000163
145,1774,420,2.96,-0.000001,0.0000163
146.5,1774,425,3.02,-0.000001,0.0000162
148,1774,430,3.07,-0.000001,0.0000162
149.5,1774,434,3.14,-0.000001,0.0000162
151,1774,439,3.18,-0.000001,0.0000161
152.5,1774,444,3.22,-0.000001,0.0000161
154,1774,448,3.26,-0.000001,0.000016
155.5,1774,453,3.3,-0.000001,0.000016
157,1774,457,3.34,-0.000001,0.000016
158.5,1774,462,3.38,-0.000001,0.0000159
160,1774,467,3.42,-0.000001,0.0000159
161.5,1774,471,3.46,-0.000001,0.0000158
163,1774,476,3.5,-0.000001,0.0000158
164.5,1774,480,3.54,-0.000001,0.0000158
166,1774,485,3.57,-0.000001,0.0000157
167.5,1774,489,3.61,-0.000001,0.0000157
169,1774,494,3.65,-0.000001,0.0000157
170.5,1774,499,3.68,-0.000001,0.0000156
172,1774,503,3.72,-0.000001,0.0000156
173.5,1774,508,3.75,-0.000001,0.0000155
175,1774,513,3.79,-0.000001,0.0000155
176.5,1774,517,3.82,-0.000001,0.0000155
178,1774,522,3.86,-0.000001,0.0000154
179.5,1774,527,3.89,-0.000001,0.0000154
181,1774,531,3.92,-0.000001,0.0000153
182.5,1774,536,3.95,-0.000001,0.0000153
184,1774,541,3.99,-0.000001,0.0000153
185.5,1774,545,4.02,-0.000001,0.0000152
187,1774,550,4.05,-0.000001,0.0000152
188.5,1774,555,4.08,-0.000001,0.0000152
190,1774,560,4.11,-0.000001,0.0000151
191.5,1774,564,4.14,-0.000001,0.0000151
193,1774,569,4.17,-0.000001,0.000015
194.5,1774,574,4.2,-0.000001,0.000015
196,1774,579,4.23,-0.000001,0.000015
197.5,1774,584,4.25,-0.000001,0.0000149
199,1774,589,4.28,-0.000001,0.0000149
200.5,1774,594,4.31,-0.000001,0.0000148
202,1774,599,4.34,-0.000001,0.0000148
203.5,1774,605,4.37,-0.000001,0.0000148
205,1774,610,4.4,-0.000001,0.0000147
206.5,1774,616,4.43,-0.000001,0.0000147
208,1774,621,4.46,-0.000001,0.0000147
209.5,1774,627,4.48,-0.000001,0.0000146
211,1774,633,4.51,-0.000001,0.0000146
212.5,1774,638,4.54,-0.000001,0.0000145
214,1774,644,4.56,-0.000001,0.0000145
215.5,1774,649,4.59,-0.000001,0.0000145
217,1774,655,4.61,-0.000001,0.0000144
218.5,1774,661,4.64,-0.000001,0.0000144
220,1774,666,4.66,-0.000001,0.0000143
221.5,1774,672,4.69,-0.000001,0.0000143
223,1774,678,4.71,-0.000001,0.0000143
224.5,1774,683,4.73,-0.000001,0.0000142
226,1774,689,4.75,-0.000001,0.0000142
227.5,1774,694,4.77,-0.000001,0.0000142
229,1774,700,4.79,-0.000001,0.0000141
230.5,1774,706,4.81,-0.000001,0.0000141
232,1774,711,4.83,-0.000001,0.000014
233.5,1774,717,4.85,-0.000001,0.000014
235,1774,722,4.87,-0.000001,0.000014
236.5,1774,728,4.88,-0.000001,0.0000139
238,1774,733,4.9,-0.000001,0.0000139
239.5,1774,739,4.92,-0.000001,0.0000138
241,1774,745,4.93,-0.000001,0.0000138
242.5,1774,750,4.94,-0.000001,0.0000138
244,1774,755,4.96,-0.000001,0.0000137
245.5,1774,761,4.97,-0.000001,0.0000137
247,1774,766,4.98,-0.000001,0.0000137
248.5,1774,772,4.99,-0.000001,0.0000136
250,1774,777,5,-0.000001,0.0000136
251.5,1774,782,5,-0.000001,0.0000135
253,1774,786,5.01,-0.000001,0.0000135
254.5,1774,791,5.01,-0.000001,0.0000135
256,1774,796,5.02,-0.000001,0.0000134
257.5,1774,800,5.02,-0.000001,0.0000134
259,1774,805,5.02,-0.000001,0.0000133
260.5,1774,810,5.02,-0.000001,0.0000133
262,1774,815,5.03,-0.000001,0.0000133
263.5,1774,820,5.03,-0.000001,0.0000132
265,1774,825,5.03,-0.000001,0.0000132
266.5,1774,830,5.03,-0.000001,0.0000132
268,1774,835,5.03,-0.000001,0.0000131
269.5,1774,841,5.03,-0.000001,0.0000131
271,1774,846,5.03,-0.000001,0.000013
272.5,1774,852,5.03,-0.000001,0.000013
274,1774,857,5.03,-0.000001,0.000013
275.5,1774,863,5.03,-0.000001,0.0000129
277,1774,869,5.03,-0.000001,0.0000129
278.5,1774,875,5.03,-0.000001,0.0000128
280,1774,881,5.03,-0.000001,0.0000128
281.5,1774,888,5.03,-0.000001,0.0000128
283,1774,894,5.03,-0.000001,0.0000127
284.5,1774,901,5.03,-0.000001,0.0000127
286,1774,907,5.03,-0.000001,0.0000127
287.5,1774,914,5.03,-0.000001,0.0000126
289,1774,922,5.03,-0.000001,0.0000126
290.5,1774,929,5.03,-0.000001,0.0000125
292,1774,936,5.04,-0.000001,0.0000125
293.5,1774,944,5.04,-0.000001,0.0000125
295,1774,952,5.04,-0.000001,0.0000124
296.5,1774,960,5.04,-0.000001,0.0000124
298,1774,969,5.05,-0.000001,0.0000123
299.5,1774,977,5.05,-0.000001,0.0000123
300,1774,980,5.05,-0.000001,0.0000123