File: SolidProps/lib/CARBON_FIBER_NORMAL_TO_FIBER.csv
T/K,rho/(kg/m3),cp/(J/(kg.K)),K/(W/(m.K)),alpha_thermal/(1/K),resistivity/(ohm.m)
1,1774,0.0184,0.005,0,0
2.5,1774,0.474,0.0106,0,0
4,1774,1.61,0.0146,0,0
5.5,1774,3.18,0.0184,0,0
7,1774,5.14,0.0223,0,0
8.5,1774,7.43,0.0261,0,0
10,1774,10,0.03,3.91251e-07,0
11.5,1774,12.6,0.0345,1.1232e-06,0
13,1774,15.5,0.0392,1.85512e-06,0
14.5,1774,18.4,0.044,2.58657e-06,0
16,1774,21.5,0.0489,3.31708e-06,0
17.5,1774,24.6,0.0538,4.04623e-06,0
19,1774,27.8,0.0588,4.7736e-06,0
20.5,1774,31,0.0635,5.49877e-06,0
22,1774,34,0.0679,6.22135e-06,0
23.5,1774,37.1,0.0722,6.94094e-06,0
25,1774,40.1,0.0764,7.65718e-06,0
26.5,1774,43.2,0.0806,8.36971e-06,0
28,1774,46.4,0.0847,9.07817e-06,0
29.5,1774,49.6,0.0887,9.78223e-06,0
31,1774,52.7,0.0926,1.04816e-05,0
32.5,1774,55.9,0.0964,1.11758e-05,0
34,1774,59.1,0.1,1.18648e-05,0
35.5,1774,62.5,0.104,1.25481e-05,0
37,1774,66,0.108,1.32254e-05,0
38.5,1774,69.7,0.111,1.38966e-05,0
40,1774,73.5,0.115,1.45613e-05,0
41.5,1774,77.8,0.119,1.52193e-05,0
43,1774,82.3,0.122,1.58704e-05,0
44.5,1774,86.9,0.126,1.65143e-05,0
46,1774,91.7,0.129,1.71508e-05,0
47.5,1774,96.6,0.133,1.77798e-05,0
49,1774,102,0.137,1.84009e-05,0
50.5,1774,107,0.142,1.9014e-05,0
52,1774,112,0.147,1.9619e-05,0
53.5,1774,117,0.152,2.02156e-05,0
55,1774,122,0.158,2.08038e-05,0
56.5,1774,128,0.163,2.13833e-05,0
58,1774,133,0.168,2.1954e-05,0
59.5,1774,138,0.174,2.25159e-05,0
61,1774,143,0.178,2.30686e-05,0
62.5,1774,148,0.181,2.36123e-05,0
64,1774,153,0.185,2.41466e-05,0
65.5,1774,158,0.188,2.46716e-05,0
67,1774,163,0.192,2.51872e-05,0
68.5,1774,168,0.196,2.56933e-05,0
70,1774,173,0.2,2.61897e-05,0
71.5,1774,179,0.205,2.66765e-05,0
73,1774,185,0.21,2.71535e-05,0
74.5,1774,190,0.216,2.76208e-05,0
76,1774,196,0.222,2.80783e-05,0
77.5,1774,202,0.229,2.8526e-05,0
79,1774,207,0.235,2.89638e-05,0
80.5,1774,212,0.243,2.93916e-05,0
82,1774,217,0.251,2.98096e-05,0
83.5,1774,221,0.26,3.02177e-05,0
85,1774,225,0.269,3.06159e-05,0
86.5,1774,229,0.277,3.10042e-05,0
88,1774,233,0.285,3.13826e-05,0
89.5,1774,237,0.293,3.17511e-05,0
91,1774,242,0.298,3.21098e-05,0
92.5,1774,247,0.303,3.24587e-05,0
94,1774,252,0.306,3.27978e-05,0
95.5,1774,258,0.309,3.31272e-05,0
97,1774,263,0.312,3.3447e-05,0
98.5,1774,268,0.314,3.37571e-05,0
100,1774,274,0.315,3.40577e-05,0
101.5,1774,279,0.319,3.43488e-05,0
103,1774,284,0.323,3.46305e-05,0
104.5,1774,289,0.327,3.49029e-05,0
106,1774,294,0.332,3.51661e-05,0
107.5,1774,300,0.336,3.542e-05,0
109,1774,305,0.341,3.56649e-05,0
110.5,1774,310,0.346,3.59009e-05,0
112,1774,315,0.351,3.61279e-05,0
113.5,1774,320,0.356,3.63462e-05,0
115,1774,325,0.361,3.65558e-05,0
116.5,1774,329,0.367,3.67569e-05,0
118,1774,334,0.372,3.69496e-05,0
119.5,1774,339,0.378,3.7134e-05,0
121,1774,344,0.384,3.73102e-05,0
122.5,1774,349,0.389,3.74783e-05,0
124,1774,354,0.395,3.76385e-05,0
125.5,1774,359,0.401,3.7791e-05,0
127,1774,364,0.407,3.79357e-05,0
128.5,1774,368,0.413,3.8073e-05,0
130,1774,373,0.419,3.82029e-05,0
131.5,1774,378,0.425,3.83256e-05,0
133,1774,383,0.432,3.84413e-05,0
134.5,1774,387,0.438,3.855e-05,0
136,1774,392,0.444,3.86519e-05,0
137.5,1774,397,0.45,3.87473e-05,0
139,1774,402,0.456,3.88362e-05,0
140.5,1774,406,0.462,3.89188e-05,0
142,1774,411,0.468,3.89952e-05,0
143.5,1774,416,0.474,3.90657e-05,0
145,1774,420,0.48,3.91304e-05,0
146.5,1774,425,0.486,3.91895e-05,0
148,1774,430,0.492,3.92431e-05,0
149.5,1774,434,0.499,3.92914e-05,0
151,1774,439,0.503,3.93346e-05,0
152.5,1774,444,0.507,3.93728e-05,0
154,1774,448,0.51,3.94062e-05,0
155.5,1774,453,0.514,3.9435e-05,0
157,1774,457,0.518,3.94594e-05,0
158.5,1774,462,0.522,3.94795e-05,0
160,1774,467,0.525,3.94954e-05,0
161.5,1774,471,0.529,3.95075e-05,0
163,1774,476,0.532,3.95158e-05,0
164.5,1774,480,0.535,3.95205e-05,0
166,1774,485,0.538,3.95218e-05,0
167.5,1774,489,0.542,3.95198e-05,0
169,1774,494,0.545,3.95148e-05,0
170.5,1774,499,0.548,3.95068e-05,0
172,1774,503,0.55,3.94961e-05,0
173.5,1774,508,0.553,3.94829e-05,0
175,1774,513,0.556,3.94673e-05,0
176.5,1774,517,0.559,3.94673e-05,0
178,1774,522,0.561,3.94673e-05,0
179.5,1774,527,0.564,3.94673e-05,0
181,1774,531,0.566,3.94673e-05,0
182.5,1774,536,0.568,3.94673e-05,0
184,1774,541,0.571,3.94673e-05,0
185.5,1774,545,0.573,3.94673e-05,0
187,1774,550,0.575,3.94673e-05,0
188.5,1774,555,0.577,3.94673e-05,0
190,1774,560,0.579,3.94673e-05,0
191.5,1774,564,0.581,3.94673e-05,0
193,1774,569,0.583,3.94673e-05,0
194.5,1774,574,0.584,3.94673e-05,0
196,1774,579,0.586,3.94673e-05,0
197.5,1774,584,0.588,3.94673e-05,0
199,1774,589,0.589,3.94673e-05,0
200.5,1774,594,0.59,3.94673e-05,0
202,1774,599,0.591,3.94673e-05,0
203.5,1774,605,0.591,3.94673e-05,0
205,1774,610,0.591,3.94673e-05,0
206.5,1774,616,0.592,3.94673e-05,0
208,1774,621,0.592,3.94673e-05,0
209.5,1774,627,0.592,3.94673e-05,0
211,1774,633,0.592,3.94673e-05,0
212.5,1774,638,0.593,3.94673e-05,0
214,1774,644,0.593,3.94673e-05,0
215.5,1774,649,0.593,3.94673e-05,0
217,1774,655,0.593,3.94673e-05,0
218.5,1774,661,0.593,3.94673e-05,0
220,1774,666,0.593,3.94673e-05,0
221.5,1774,672,0.593,3.94673e-05,0
223,1774,678,0.593,3.94673e-05,0
224.5,1774,683,0.593,3.94673e-05,0
226,1774,689,0.593,3.94673e-05,0
227.5,1774,694,0.593,3.94673e-05,0
229,1774,700,0.593,3.94673e-05,0
230.5,1774,706,0.593,3.94673e-05,0
232,1774,711,0.594,3.94673e-05,0
233.5,1774,717,0.594,3.94673e-05,0
235,1774,722,0.594,3.94673e-05,0
236.5,1774,728,0.594,3.94673e-05,0
238,1774,733,0.595,3.94673e-05,0
239.5,1774,739,0.595,3.94673e-05,0
241,1774,745,0.596,3.94673e-05,0
242.5,1774,750,0.596,3.94673e-05,0
244,1774,755,0.597,3.94673e-05,0
245.5,1774,761,0.597,3.94673e-05,0
247,1774,766,0.598,3.94673e-05,0
248.5,1774,772,0.599,3.94673e-05,0
250,1774,777,0.6,3.94673e-05,0
251.5,1774,782,0.602,3.94673e-05,0
253,1774,786,0.604,3.94673e-05,0
254.5,1774,791,0.606,3.94673e-05,0
256,1774,796,0.608,3.94673e-05,0
257.5,1774,800,0.61,3.94673e-05,0
259,1774,805,0.612,3.94673e-05,0
260.5,1774,810,0.614,3.94673e-05,0
262,1774,815,0.616,3.94673e-05,0
263.5,1774,820,0.618,3.94673e-05,0
265,1774,825,0.62,3.94673e-05,0
266.5,1774,830,0.622,3.94673e-05,0
268,1774,835,0.624,3.94673e-05,0
269.5,1774,841,0.626,3.94673e-05,0
271,1774,846,0.628,3.94673e-05,0
272.5,1774,852,0.629,3.94673e-05,0
274,1774,857,0.631,3.94673e-05,0
275.5,1774,863,0.633,3.94673e-05,0
277,1774,869,0.635,3.94673e-05,0
278.5,1774,875,0.636,3.94673e-05,0
280,1774,881,0.638,3.94673e-05,0
281.5,1774,888,0.639,3.94673e-05,0
283,1774,894,0.641,3.94673e-05,0
284.5,1774,901,0.642,3.94673e-05,0
286,1774,907,0.643,3.94673e-05,0
287.5,1774,914,0.645,3.94673e-05,0
289,1774,922,0.646,3.94673e-05,0
290.5,1774,929,0.647,3.94673e-05,0
292,1774,936,0.647,3.94673e-05,0
293.5,1774,944,0.648,3.94673e-05,0
295,1774,952,0.649,3.94673e-05,0
296.5,1774,960,0.649,3.94673e-05,0
298,1774,969,0.65,3.94673e-05,0
299.5,1774,977,0.65,3.94673e-05,0
300,1774,980,0.65,3.94673e-05,0