File: SolidProps/lib/COPPER_ZINC_90_10.csv
T/K,rho/(kg/m3),cp/(J/(kg.K)),K/(W/(m.K)),alpha_thermal/(1/K),resistivity/(ohm.m)
1,8802,0.0111,1.11,0,0.0000000211
2.5,8802,0.0409,3.58,0,0.0000000211
4,8802,0.0964,6.57,0,0.0000000211
5.5,8802,0.205,9.54,0,0.0000000211
7,8802,0.386,12.5,0,0.0000000211
8.5,8802,0.66,15.5,0,0.0000000211
10,8802,1.05,18.5,0,0.0000000211
11.5,8802,1.52,21.9,5.16524e-08,0.000000021
13,8802,2.14,25.4,1.33293e-07,0.000000021
14.5,8802,2.95,29,1.95886e-07,0.000000021
16,8802,3.98,32.6,2.75653e-07,0.000000021
17.5,8802,5.25,36.1,3.71516e-07,0.000000021
19,8802,6.8,39.7,4.82439e-07,0.000000021
20.5,8802,8.76,43.1,6.0742e-07,0.000000021
22,8802,11.2,46.2,7.45494e-07,0.000000021
23.5,8802,14,49.3,8.9573e-07,0.000000021
25,8802,17.1,52.2,1.05723e-06,0.0000000211
26.5,8802,20.5,54.9,1.22914e-06,0.0000000211
28,8802,24.2,57.6,1.41062e-06,0.0000000211
29.5,8802,28.2,60.1,1.60088e-06,0.0000000211
31,8802,32.5,62.2,1.79916e-06,0.0000000212
32.5,8802,37,64.1,2.00471e-06,0.0000000212
34,8802,41.8,65.9,2.21683e-06,0.0000000213
35.5,8802,46.8,67.6,2.43486e-06,0.0000000213
37,8802,52,69.1,2.65813e-06,0.0000000214
38.5,8802,57.4,70.6,2.88604e-06,0.0000000214
40,8802,63.1,72,3.11799e-06,0.0000000215
41.5,8802,69.1,73.4,3.35342e-06,0.0000000216
43,8802,75.2,74.8,3.59178e-06,0.0000000216
44.5,8802,81.5,76.1,3.83257e-06,0.0000000217
46,8802,87.8,77.4,4.07529e-06,0.0000000218
47.5,8802,94.2,78.6,4.31949e-06,0.0000000219
49,8802,101,79.8,4.56472e-06,0.0000000219
50.5,8802,107,81,4.81056e-06,0.000000022
52,8802,113,82.2,5.05662e-06,0.0000000221
53.5,8802,118,83.3,5.30252e-06,0.0000000222
55,8802,124,84.4,5.54791e-06,0.0000000223
56.5,8802,130,85.5,5.79246e-06,0.0000000224
58,8802,135,86.6,6.03585e-06,0.0000000225
59.5,8802,141,87.7,6.27778e-06,0.0000000226
61,8802,146,88.8,6.518e-06,0.0000000227
62.5,8802,152,89.8,6.75622e-06,0.0000000228
64,8802,157,90.9,6.99223e-06,0.0000000229
65.5,8802,162,91.9,7.22578e-06,0.000000023
67,8802,168,92.9,7.45669e-06,0.0000000232
68.5,8802,173,93.9,7.68475e-06,0.0000000233
70,8802,178,94.9,7.9098e-06,0.0000000234
71.5,8802,183,95.8,8.13166e-06,0.0000000235
73,8802,188,96.7,8.35021e-06,0.0000000236
74.5,8802,192,97.6,8.5653e-06,0.0000000237
76,8802,197,98.5,8.77681e-06,0.0000000239
77.5,8802,201,99.3,8.98465e-06,0.000000024
79,8802,206,100,9.18871e-06,0.0000000241
80.5,8802,210,101,9.38893e-06,0.0000000242
82,8802,214,102,9.58521e-06,0.0000000243
83.5,8802,219,103,9.77752e-06,0.0000000244
85,8802,223,104,9.9658e-06,0.0000000245
86.5,8802,227,105,1.015e-05,0.0000000246
88,8802,231,106,1.03301e-05,0.0000000248
89.5,8802,234,107,1.05061e-05,0.0000000249
91,8802,238,108,1.0678e-05,0.000000025
92.5,8802,242,109,1.08457e-05,0.0000000251
94,8802,245,110,1.10093e-05,0.0000000252
95.5,8802,249,110,1.11688e-05,0.0000000253
97,8802,252,111,1.13242e-05,0.0000000255
98.5,8802,256,112,1.14756e-05,0.0000000256
100,8802,259,113,1.16229e-05,0.0000000257
101.5,8802,262,114,1.17662e-05,0.0000000258
103,8802,265,114,1.19056e-05,0.0000000259
104.5,8802,268,115,1.20411e-05,0.0000000261
106,8802,271,116,1.21728e-05,0.0000000262
107.5,8802,274,117,1.23007e-05,0.0000000263
109,8802,277,118,1.24248e-05,0.0000000264
110.5,8802,279,118,1.25453e-05,0.0000000265
112,8802,282,119,1.26623e-05,0.0000000266
113.5,8802,284,120,1.27758e-05,0.0000000268
115,8802,287,121,1.28858e-05,0.0000000269
116.5,8802,289,121,1.29925e-05,0.000000027
118,8802,291,122,1.30959e-05,0.0000000271
119.5,8802,293,123,1.31962e-05,0.0000000272
121,8802,295,124,1.32934e-05,0.0000000273
122.5,8802,297,124,1.33876e-05,0.0000000275
124,8802,299,125,1.34789e-05,0.0000000276
125.5,8802,301,126,1.35674e-05,0.0000000277
127,8802,303,127,1.36532e-05,0.0000000278
128.5,8802,305,127,1.37364e-05,0.0000000279
130,8802,307,128,1.3817e-05,0.000000028
131.5,8802,308,129,1.38952e-05,0.0000000281
133,8802,310,129,1.3971e-05,0.0000000283
134.5,8802,311,130,1.40446e-05,0.0000000284
136,8802,313,131,1.4116e-05,0.0000000285
137.5,8802,314,131,1.41854e-05,0.0000000286
139,8802,316,132,1.42528e-05,0.0000000287
140.5,8802,317,133,1.43183e-05,0.0000000288
142,8802,318,133,1.4382e-05,0.000000029
143.5,8802,320,134,1.4444e-05,0.0000000291
145,8802,321,135,1.45044e-05,0.0000000292
146.5,8802,322,135,1.45633e-05,0.0000000293
148,8802,323,136,1.46207e-05,0.0000000294
149.5,8802,324,137,1.46767e-05,0.0000000295
151,8802,326,137,1.47314e-05,0.0000000296
152.5,8802,327,138,1.47849e-05,0.0000000298
154,8802,328,139,1.48372e-05,0.0000000299
155.5,8802,329,139,1.48885e-05,0.00000003
157,8802,331,140,1.49387e-05,0.0000000301
158.5,8802,332,141,1.4988e-05,0.0000000302
160,8802,333,141,1.50365e-05,0.0000000303
161.5,8802,334,142,1.50841e-05,0.0000000304
163,8802,335,143,1.51309e-05,0.0000000306
164.5,8802,336,143,1.5177e-05,0.0000000307
166,8802,337,144,1.52225e-05,0.0000000308
167.5,8802,338,145,1.52674e-05,0.0000000309
169,8802,339,145,1.53117e-05,0.000000031
170.5,8802,340,146,1.53555e-05,0.0000000311
172,8802,341,147,1.53988e-05,0.0000000312
173.5,8802,342,147,1.54416e-05,0.0000000314
175,8802,343,148,1.54841e-05,0.0000000315
176.5,8802,344,149,1.55261e-05,0.0000000316
178,8802,345,149,1.55678e-05,0.0000000317
179.5,8802,345,150,1.56091e-05,0.0000000318
181,8802,346,150,1.56502e-05,0.0000000319
182.5,8802,347,151,1.56909e-05,0.0000000321
184,8802,348,152,1.57314e-05,0.0000000322
185.5,8802,348,152,1.57715e-05,0.0000000323
187,8802,349,153,1.58115e-05,0.0000000324
188.5,8802,350,153,1.58511e-05,0.0000000325
190,8802,351,154,1.58905e-05,0.0000000326
191.5,8802,351,155,1.59296e-05,0.0000000327
193,8802,352,155,1.59684e-05,0.0000000329
194.5,8802,353,156,1.6007e-05,0.000000033
196,8802,353,156,1.60453e-05,0.0000000331
197.5,8802,354,157,1.60833e-05,0.0000000332
199,8802,354,158,1.6121e-05,0.0000000333
200.5,8802,355,158,1.61584e-05,0.0000000334
202,8802,356,159,1.61954e-05,0.0000000336
203.5,8802,356,159,1.62321e-05,0.0000000337
205,8802,357,160,1.62684e-05,0.0000000338
206.5,8802,358,160,1.63042e-05,0.0000000339
208,8802,358,161,1.63397e-05,0.000000034
209.5,8802,359,162,1.63746e-05,0.0000000341
211,8802,360,162,1.64091e-05,0.0000000343
212.5,8802,360,163,1.64431e-05,0.0000000344
214,8802,361,163,1.64765e-05,0.0000000345
215.5,8802,362,164,1.65093e-05,0.0000000346
217,8802,362,164,1.65415e-05,0.0000000347
218.5,8802,363,165,1.65731e-05,0.0000000348
220,8802,363,165,1.6604e-05,0.000000035
221.5,8802,364,166,1.66342e-05,0.0000000351
223,8802,364,167,1.66637e-05,0.0000000352
224.5,8802,365,167,1.66923e-05,0.0000000353
226,8802,365,168,1.67202e-05,0.0000000354
227.5,8802,366,168,1.67473e-05,0.0000000355
229,8802,367,169,1.67735e-05,0.0000000357
230.5,8802,367,169,1.67988e-05,0.0000000358
232,8802,367,170,1.68232e-05,0.0000000359
233.5,8802,368,170,1.68467e-05,0.000000036
235,8802,368,171,1.68693e-05,0.0000000361
236.5,8802,369,171,1.68908e-05,0.0000000362
238,8802,369,172,1.69114e-05,0.0000000364
239.5,8802,370,172,1.6931e-05,0.0000000365
241,8802,370,173,1.69496e-05,0.0000000366
242.5,8802,371,173,1.69673e-05,0.0000000367
244,8802,371,174,1.69839e-05,0.0000000368
245.5,8802,371,174,1.69995e-05,0.0000000369
247,8802,372,175,1.70141e-05,0.000000037
248.5,8802,372,175,1.70278e-05,0.0000000372
250,8802,372,176,1.70405e-05,0.0000000373
251.5,8802,373,177,1.70523e-05,0.0000000374
253,8802,373,177,1.70632e-05,0.0000000375
254.5,8802,373,178,1.70733e-05,0.0000000376
256,8802,374,178,1.70826e-05,0.0000000377
257.5,8802,374,179,1.70911e-05,0.0000000378
259,8802,374,179,1.7099e-05,0.0000000379
260.5,8802,374,180,1.71062e-05,0.0000000381
262,8802,375,180,1.7113e-05,0.0000000382
263.5,8802,375,181,1.71193e-05,0.0000000383
265,8802,375,181,1.71252e-05,0.0000000384
266.5,8802,375,182,1.7131e-05,0.0000000385
268,8802,376,182,1.71366e-05,0.0000000386
269.5,8802,376,183,1.71422e-05,0.0000000387
271,8802,376,183,1.7148e-05,0.0000000388
272.5,8802,376,184,1.71541e-05,0.000000039
274,8802,377,184,1.71608e-05,0.0000000391
275.5,8802,377,185,1.71608e-05,0.0000000392
277,8802,377,185,1.71608e-05,0.0000000393
278.5,8802,377,185,1.71608e-05,0.0000000394
280,8802,377,186,1.71608e-05,0.0000000395
281.5,8802,378,186,1.71608e-05,0.0000000396
283,8802,378,187,1.71608e-05,0.0000000398
284.5,8802,378,187,1.71608e-05,0.0000000399
286,8802,378,188,1.71608e-05,0.00000004
287.5,8802,379,188,1.71608e-05,0.0000000401
289,8802,379,189,1.71608e-05,0.0000000402
290.5,8802,379,189,1.71608e-05,0.0000000403
292,8802,379,190,1.71608e-05,0.0000000405
293.5,8802,380,190,1.71608e-05,0.0000000406
295,8802,380,191,1.71608e-05,0.0000000407
296.5,8802,380,191,1.71608e-05,0.0000000408
298,8802,381,192,1.71608e-05,0.0000000409
299.5,8802,381,192,1.71608e-05,0.0000000411
300,8802,381,192,1.71608e-05,0.0000000411