File: SolidProps/lib/COPPER-NICKEL_90-10.csv
T/K,rho/(kg/m3),cp/(J/(kg.K)),K/(W/(m.K)),alpha_thermal/(1/K),resistivity/(ohm.m)
1,8940,0.126,0.28,0,0.00000014
2.5,8940,0.305,0.702,0,0.00000014
4,8940,0.515,1.14,0,0.00000014
5.5,8940,0.768,1.9,0,0.00000014
7,8940,1.07,2.93,0,0.00000014
8.5,8940,1.44,4.18,0,0.00000014
10,8940,1.88,5.6,0,0.00000014
11.5,8940,2.28,7.03,0,0.00000014
13,8940,2.77,8.53,0,0.00000014
14.5,8940,3.4,10.1,0,0.00000014
16,8940,4.19,11.7,8.16699e-08,0.00000014
17.5,8940,5.2,13.4,2.08716e-07,0.00000014
19,8940,6.45,15,3.38045e-07,0.00000014
20.5,8940,8.08,16.6,4.49126e-07,0.00000014
22,8940,10.2,18.1,5.09453e-07,0.00000014
23.5,8940,12.7,19.6,5.64487e-07,0.00000014
25,8940,15.4,21.1,6.17767e-07,0.00000014
26.5,8940,18.4,22.5,6.80798e-07,0.00000014
28,8940,21.8,23.8,7.53109e-07,0.00000014
29.5,8940,25.3,25.1,8.34239e-07,0.00000014
31,8940,29.5,26.2,9.23739e-07,0.00000014
32.5,8940,33.9,27.3,1.02117e-06,0.00000014
34,8940,38.6,28.3,1.12611e-06,0.00000014
35.5,8940,43.4,29.2,1.23813e-06,0.00000014
37,8940,48.5,30,1.35684e-06,0.00000014
38.5,8940,53.7,30.8,1.48183e-06,0.00000014
40,8940,59,31.6,1.61273e-06,0.00000014
41.5,8940,64.2,32.4,1.74915e-06,0.00000014
43,8940,69.4,33.1,1.89074e-06,0.00000014
44.5,8940,74.7,33.8,2.03713e-06,0.00000014
46,8940,80.1,34.4,2.18799e-06,0.00000014
47.5,8940,85.6,35,2.34298e-06,0.00000014
49,8940,91.2,35.5,2.50177e-06,0.000000141
50.5,8940,97,35.9,2.66405e-06,0.000000141
52,8940,103,36.3,2.82951e-06,0.000000141
53.5,8940,109,36.6,2.99786e-06,0.000000141
55,8940,115,36.9,3.16881e-06,0.000000141
56.5,8940,121,37.1,3.34207e-06,0.000000141
58,8940,127,37.3,3.51739e-06,0.000000141
59.5,8940,133,37.4,3.6945e-06,0.000000141
61,8940,139,37.6,3.87315e-06,0.000000141
62.5,8940,145,37.7,4.05309e-06,0.000000141
64,8940,151,37.9,4.2341e-06,0.000000142
65.5,8940,156,37.9,4.41594e-06,0.000000142
67,8940,162,38,4.5984e-06,0.000000142
68.5,8940,168,38,4.78127e-06,0.000000142
70,8940,173,38,4.96434e-06,0.000000142
71.5,8940,178,37.9,5.14742e-06,0.000000142
73,8940,183,37.8,5.33033e-06,0.000000143
74.5,8940,188,37.6,5.51289e-06,0.000000143
76,8940,193,37.5,5.69492e-06,0.000000143
77.5,8940,198,37.3,5.87627e-06,0.000000143
79,8940,202,37.1,6.05678e-06,0.000000143
80.5,8940,207,36.9,6.23629e-06,0.000000144
82,8940,211,36.8,6.41467e-06,0.000000144
83.5,8940,215,36.6,6.59178e-06,0.000000144
85,8940,220,36.5,6.7675e-06,0.000000144
86.5,8940,224,36.3,6.9417e-06,0.000000144
88,8940,227,36.2,7.11427e-06,0.000000145
89.5,8940,231,36,7.28509e-06,0.000000145
91,8940,234,35.9,7.45408e-06,0.000000145
92.5,8940,236,35.8,7.62113e-06,0.000000146
94,8940,239,35.7,7.78615e-06,0.000000146
95.5,8940,240,35.7,7.94906e-06,0.000000146
97,8940,242,35.6,8.10978e-06,0.000000147
98.5,8940,244,35.5,8.26824e-06,0.000000147
100,8940,245,35.5,8.42437e-06,0.000000148
101.5,8940,247,35.5,8.57812e-06,0.000000148
103,8940,249,35.4,8.72943e-06,0.000000148
104.5,8940,251,35.4,8.87824e-06,0.000000148
106,8940,254,35.4,9.02452e-06,0.000000149
107.5,8940,256,35.4,9.16822e-06,0.000000149
109,8940,258,35.3,9.30931e-06,0.000000149
110.5,8940,261,35.3,9.44775e-06,0.000000149
112,8940,263,35.3,9.58353e-06,0.000000149
113.5,8940,265,35.2,9.71663e-06,0.000000149
115,8940,268,35.2,9.84702e-06,0.00000015
116.5,8940,270,35.2,9.97469e-06,0.00000015
118,8940,273,35.1,1.00996e-05,0.00000015
119.5,8940,275,35.1,1.02219e-05,0.00000015
121,8940,277,35.1,1.03414e-05,0.00000015
122.5,8940,280,35.1,1.04581e-05,0.00000015
124,8940,282,35,1.05722e-05,0.00000015
125.5,8940,285,35,1.06835e-05,0.00000015
127,8940,287,35,1.07922e-05,0.00000015
128.5,8940,290,34.9,1.08982e-05,0.00000015
130,8940,292,34.9,1.10015e-05,0.00000015
131.5,8940,295,34.9,1.11023e-05,0.00000015
133,8940,297,34.8,1.12004e-05,0.00000015
134.5,8940,299,34.8,1.1296e-05,0.00000015
136,8940,302,34.8,1.1389e-05,0.00000015
137.5,8940,304,34.8,1.14795e-05,0.00000015
139,8940,307,34.7,1.15676e-05,0.00000015
140.5,8940,309,34.7,1.16533e-05,0.00000015
142,8940,311,34.7,1.17366e-05,0.00000015
143.5,8940,313,34.6,1.18175e-05,0.00000015
145,8940,316,34.6,1.18962e-05,0.00000015
146.5,8940,318,34.6,1.19727e-05,0.00000015
148,8940,320,34.5,1.20469e-05,0.00000015
149.5,8940,322,34.5,1.21191e-05,0.00000015
151,8940,324,34.5,1.21892e-05,0.00000015
152.5,8940,325,34.5,1.22573e-05,0.00000015
154,8940,327,34.5,1.23234e-05,0.00000015
155.5,8940,328,34.5,1.23876e-05,0.00000015
157,8940,330,34.6,1.245e-05,0.000000151
158.5,8940,331,34.6,1.25106e-05,0.000000151
160,8940,332,34.6,1.25695e-05,0.000000151
161.5,8940,333,34.6,1.26267e-05,0.000000151
163,8940,335,34.6,1.26824e-05,0.000000151
164.5,8940,336,34.7,1.27365e-05,0.000000151
166,8940,337,34.7,1.27892e-05,0.000000151
167.5,8940,338,34.7,1.28404e-05,0.000000152
169,8940,339,34.8,1.28904e-05,0.000000152
170.5,8940,340,34.8,1.2939e-05,0.000000152
172,8940,341,34.8,1.29865e-05,0.000000152
173.5,8940,342,34.8,1.30328e-05,0.000000152
175,8940,343,34.9,1.30781e-05,0.000000152
176.5,8940,344,34.9,1.31223e-05,0.000000153
178,8940,345,34.9,1.31656e-05,0.000000153
179.5,8940,346,35,1.3208e-05,0.000000153
181,8940,347,35,1.32496e-05,0.000000153
182.5,8940,348,35,1.32904e-05,0.000000153
184,8940,349,35.1,1.33306e-05,0.000000153
185.5,8940,349,35.1,1.337e-05,0.000000153
187,8940,350,35.2,1.34089e-05,0.000000154
188.5,8940,351,35.2,1.34473e-05,0.000000154
190,8940,352,35.2,1.34851e-05,0.000000154
191.5,8940,352,35.3,1.35226e-05,0.000000154
193,8940,353,35.3,1.35597e-05,0.000000154
194.5,8940,354,35.4,1.35964e-05,0.000000154
196,8940,354,35.4,1.36329e-05,0.000000155
197.5,8940,355,35.4,1.36691e-05,0.000000155
199,8940,356,35.5,1.37052e-05,0.000000155
200.5,8940,356,35.5,1.3741e-05,0.000000155
202,8940,357,35.5,1.37768e-05,0.000000155
203.5,8940,358,35.6,1.38125e-05,0.000000155
205,8940,358,35.6,1.38482e-05,0.000000155
206.5,8940,359,35.6,1.38838e-05,0.000000155
208,8940,360,35.7,1.39195e-05,0.000000155
209.5,8940,360,35.7,1.39552e-05,0.000000156
211,8940,361,35.7,1.39909e-05,0.000000156
212.5,8940,362,35.7,1.40267e-05,0.000000156
214,8940,362,35.8,1.40626e-05,0.000000156
215.5,8940,363,35.8,1.40986e-05,0.000000156
217,8940,363,35.8,1.41347e-05,0.000000156
218.5,8940,364,35.9,1.4171e-05,0.000000156
220,8940,364,35.9,1.42073e-05,0.000000156
221.5,8940,365,35.9,1.42437e-05,0.000000156
223,8940,366,36,1.42802e-05,0.000000156
224.5,8940,366,36,1.43168e-05,0.000000157
226,8940,367,36,1.43534e-05,0.000000157
227.5,8940,367,36,1.43901e-05,0.000000157
229,8940,368,36.1,1.44268e-05,0.000000157
230.5,8940,368,36.1,1.44635e-05,0.000000157
232,8940,369,36.1,1.45001e-05,0.000000157
233.5,8940,369,36.2,1.45367e-05,0.000000157
235,8940,370,36.2,1.45731e-05,0.000000157
236.5,8940,370,36.2,1.46092e-05,0.000000158
238,8940,371,36.3,1.46452e-05,0.000000158
239.5,8940,371,36.3,1.46808e-05,0.000000158
241,8940,371,36.3,1.4716e-05,0.000000158
242.5,8940,372,36.3,1.47508e-05,0.000000158
244,8940,372,36.4,1.4785e-05,0.000000158
245.5,8940,373,36.4,1.48187e-05,0.000000158
247,8940,373,36.4,1.48516e-05,0.000000159
248.5,8940,374,36.5,1.48837e-05,0.000000159
250,8940,374,36.5,1.49148e-05,0.000000159
251.5,8940,374,36.5,1.4945e-05,0.000000159
253,8940,375,36.6,1.4974e-05,0.000000159
254.5,8940,375,36.6,1.50017e-05,0.00000016
256,8940,376,36.6,1.50281e-05,0.00000016
257.5,8940,376,36.7,1.50529e-05,0.00000016
259,8940,376,36.7,1.5076e-05,0.00000016
260.5,8940,377,36.7,1.50973e-05,0.000000161
262,8940,377,36.8,1.51167e-05,0.000000161
263.5,8940,378,36.8,1.51338e-05,0.000000161
265,8940,378,36.8,1.51487e-05,0.000000162
266.5,8940,378,36.9,1.5161e-05,0.000000162
268,8940,379,36.9,1.51706e-05,0.000000162
269.5,8940,379,36.9,1.51774e-05,0.000000162
271,8940,380,37,1.5181e-05,0.000000163
272.5,8940,380,37,1.51814e-05,0.000000163
274,8940,380,37,1.51782e-05,0.000000163
275.5,8940,381,37.1,1.51782e-05,0.000000163
277,8940,381,37.1,1.51782e-05,0.000000164
278.5,8940,381,37.1,1.51782e-05,0.000000164
280,8940,382,37.1,1.51782e-05,0.000000164
281.5,8940,382,37.2,1.51782e-05,0.000000165
283,8940,382,37.2,1.51782e-05,0.000000165
284.5,8940,383,37.2,1.51782e-05,0.000000165
286,8940,383,37.3,1.51782e-05,0.000000165
287.5,8940,383,37.3,1.51782e-05,0.000000166
289,8940,384,37.3,1.51782e-05,0.000000166
290.5,8940,384,37.3,1.51782e-05,0.000000166
292,8940,384,37.4,1.51782e-05,0.000000167
293.5,8940,385,37.4,1.51782e-05,0.000000167
295,8940,385,37.4,1.51782e-05,0.000000167
296.5,8940,385,37.4,1.51782e-05,0.000000167
298,8940,386,37.5,1.51782e-05,0.000000168
299.5,8940,386,37.5,1.51782e-05,0.000000168
300,8940,386,37.5,1.51782e-05,0.000000168