File: SolidProps/lib/COPPER-NICKEL_70-30.csv
T/K,rho/(kg/m3),cp/(J/(kg.K)),K/(W/(m.K)),alpha_thermal/(1/K),resistivity/(ohm.m)
1,8939,0.118,0.265,0,0.000000363
2.5,8939,0.28,0.664,0,0.000000364
4,8939,0.473,1.07,0,0.000000364
5.5,8939,0.711,1.67,0,0.000000364
7,8939,1,2.44,0,0.000000364
8.5,8939,1.36,3.33,0,0.000000364
10,8939,1.8,4.3,0,0.000000365
11.5,8939,2.2,5.21,0,0.000000365
13,8939,2.7,6.13,0,0.000000365
14.5,8939,3.34,7.06,0,0.000000365
16,8939,4.15,7.99,6.40314e-08,0.000000365
17.5,8939,5.17,8.91,1.2498e-07,0.000000365
19,8939,6.44,9.81,2.24753e-07,0.000000365
20.5,8939,8.08,10.7,3.03024e-07,0.000000365
22,8939,10.2,11.4,3.79473e-07,0.000000365
23.5,8939,12.7,12.2,4.53786e-07,0.000000365
25,8939,15.4,12.9,5.35655e-07,0.000000365
26.5,8939,18.4,13.6,6.34779e-07,0.000000365
28,8939,21.8,14.2,7.40861e-07,0.000000365
29.5,8939,25.3,14.8,8.53613e-07,0.000000365
31,8939,29.5,15.4,9.32749e-07,0.000000365
32.5,8939,33.9,15.9,1.01799e-06,0.000000365
34,8939,38.6,16.3,1.10907e-06,0.000000365
35.5,8939,43.4,16.7,1.20572e-06,0.000000365
37,8939,48.5,17.1,1.30767e-06,0.000000365
38.5,8939,53.7,17.5,1.41468e-06,0.000000366
40,8939,59,17.8,1.52648e-06,0.000000366
41.5,8939,64.2,18.1,1.64285e-06,0.000000366
43,8939,69.4,18.3,1.76353e-06,0.000000366
44.5,8939,74.7,18.5,1.88831e-06,0.000000366
46,8939,80.1,18.7,2.01694e-06,0.000000366
47.5,8939,85.6,18.9,2.1492e-06,0.000000366
49,8939,91.2,19.1,2.28488e-06,0.000000366
50.5,8939,97,19.3,2.42377e-06,0.000000366
52,8939,103,19.5,2.56566e-06,0.000000366
53.5,8939,109,19.7,2.71034e-06,0.000000366
55,8939,115,19.9,2.85762e-06,0.000000366
56.5,8939,121,20.1,3.00731e-06,0.000000366
58,8939,127,20.3,3.15922e-06,0.000000366
59.5,8939,133,20.4,3.31317e-06,0.000000366
61,8939,139,20.6,3.46897e-06,0.000000366
62.5,8939,145,20.8,3.62647e-06,0.000000366
64,8939,151,21,3.78548e-06,0.000000367
65.5,8939,156,21.2,3.94585e-06,0.000000367
67,8939,162,21.3,4.10742e-06,0.000000367
68.5,8939,168,21.5,4.27003e-06,0.000000367
70,8939,173,21.6,4.43354e-06,0.000000367
71.5,8939,178,21.7,4.59779e-06,0.000000367
73,8939,183,21.8,4.76265e-06,0.000000367
74.5,8939,188,21.8,4.92798e-06,0.000000367
76,8939,193,21.9,5.09365e-06,0.000000367
77.5,8939,198,21.9,5.25953e-06,0.000000367
79,8939,202,22,5.42549e-06,0.000000367
80.5,8939,207,22,5.59142e-06,0.000000367
82,8939,211,22.1,5.7572e-06,0.000000367
83.5,8939,215,22.2,5.92271e-06,0.000000368
85,8939,220,22.3,6.08786e-06,0.000000368
86.5,8939,224,22.3,6.25253e-06,0.000000368
88,8939,227,22.4,6.41663e-06,0.000000368
89.5,8939,231,22.5,6.58006e-06,0.000000368
91,8939,234,22.5,6.74273e-06,0.000000368
92.5,8939,236,22.6,6.90454e-06,0.000000368
94,8939,239,22.7,7.06541e-06,0.000000368
95.5,8939,240,22.7,7.22527e-06,0.000000369
97,8939,242,22.8,7.38402e-06,0.000000369
98.5,8939,244,22.8,7.54161e-06,0.000000369
100,8939,245,22.9,7.69794e-06,0.000000369
101.5,8939,247,23,7.85297e-06,0.000000369
103,8939,249,23,8.00662e-06,0.000000369
104.5,8939,251,23.1,8.15883e-06,0.000000369
106,8939,254,23.1,8.30954e-06,0.00000037
107.5,8939,256,23.1,8.4587e-06,0.00000037
109,8939,258,23.2,8.60625e-06,0.00000037
110.5,8939,261,23.2,8.75214e-06,0.00000037
112,8939,263,23.3,8.89634e-06,0.00000037
113.5,8939,265,23.3,9.03879e-06,0.00000037
115,8939,268,23.4,9.17946e-06,0.00000037
116.5,8939,270,23.4,9.3183e-06,0.00000037
118,8939,273,23.4,9.45529e-06,0.000000371
119.5,8939,275,23.5,9.59038e-06,0.000000371
121,8939,277,23.5,9.72356e-06,0.000000371
122.5,8939,280,23.5,9.85479e-06,0.000000371
124,8939,282,23.6,9.98405e-06,0.000000371
125.5,8939,285,23.6,1.01113e-05,0.000000371
127,8939,287,23.6,1.02366e-05,0.000000371
128.5,8939,290,23.7,1.03598e-05,0.000000371
130,8939,292,23.7,1.0481e-05,0.000000371
131.5,8939,295,23.7,1.06001e-05,0.000000372
133,8939,297,23.7,1.07171e-05,0.000000372
134.5,8939,299,23.8,1.08321e-05,0.000000372
136,8939,302,23.8,1.0945e-05,0.000000372
137.5,8939,304,23.8,1.10558e-05,0.000000372
139,8939,307,23.8,1.11645e-05,0.000000372
140.5,8939,309,23.9,1.12711e-05,0.000000372
142,8939,311,23.9,1.13757e-05,0.000000372
143.5,8939,313,23.9,1.14781e-05,0.000000372
145,8939,316,23.9,1.15785e-05,0.000000373
146.5,8939,318,23.9,1.16768e-05,0.000000373
148,8939,320,24,1.17731e-05,0.000000373
149.5,8939,322,24,1.18672e-05,0.000000373
151,8939,324,24,1.19594e-05,0.000000373
152.5,8939,325,24,1.20495e-05,0.000000373
154,8939,327,24.1,1.21376e-05,0.000000373
155.5,8939,328,24.1,1.22237e-05,0.000000374
157,8939,330,24.1,1.23078e-05,0.000000374
158.5,8939,331,24.2,1.239e-05,0.000000374
160,8939,332,24.2,1.24702e-05,0.000000374
161.5,8939,333,24.2,1.25485e-05,0.000000374
163,8939,335,24.2,1.26249e-05,0.000000374
164.5,8939,336,24.3,1.26994e-05,0.000000375
166,8939,337,24.3,1.27721e-05,0.000000375
167.5,8939,338,24.3,1.28429e-05,0.000000375
169,8939,339,24.4,1.2912e-05,0.000000375
170.5,8939,340,24.4,1.29793e-05,0.000000375
172,8939,341,24.4,1.30448e-05,0.000000375
173.5,8939,342,24.4,1.31086e-05,0.000000376
175,8939,343,24.5,1.31708e-05,0.000000376
176.5,8939,344,24.5,1.32312e-05,0.000000376
178,8939,345,24.5,1.32901e-05,0.000000376
179.5,8939,346,24.6,1.33474e-05,0.000000376
181,8939,347,24.6,1.3403e-05,0.000000376
182.5,8939,348,24.6,1.34572e-05,0.000000377
184,8939,349,24.7,1.35099e-05,0.000000377
185.5,8939,349,24.7,1.35611e-05,0.000000377
187,8939,350,24.7,1.36108e-05,0.000000377
188.5,8939,351,24.7,1.36592e-05,0.000000377
190,8939,352,24.8,1.37062e-05,0.000000377
191.5,8939,352,24.8,1.37518e-05,0.000000378
193,8939,353,24.8,1.37962e-05,0.000000378
194.5,8939,354,24.9,1.38393e-05,0.000000378
196,8939,354,24.9,1.38812e-05,0.000000378
197.5,8939,355,24.9,1.39218e-05,0.000000378
199,8939,356,25,1.39613e-05,0.000000378
200.5,8939,356,25,1.39997e-05,0.000000379
202,8939,357,25,1.40369e-05,0.000000379
203.5,8939,358,25.1,1.40731e-05,0.000000379
205,8939,358,25.1,1.41082e-05,0.000000379
206.5,8939,359,25.2,1.41424e-05,0.000000379
208,8939,360,25.2,1.41755e-05,0.000000379
209.5,8939,360,25.2,1.42077e-05,0.00000038
211,8939,361,25.3,0.00001423901,0.00000038
212.5,8939,362,25.3,1.42694e-05,0.00000038
214,8939,362,25.3,1.4299e-05,0.00000038
215.5,8939,363,25.4,1.43277e-05,0.00000038
217,8939,363,25.4,1.43556e-05,0.00000038
218.5,8939,364,25.5,1.43827e-05,0.00000038
220,8939,364,25.5,1.4409e-05,0.000000381
221.5,8939,365,25.6,1.44347e-05,0.000000381
223,8939,366,25.6,1.44596e-05,0.000000381
224.5,8939,366,25.6,1.44838e-05,0.000000381
226,8939,367,25.7,1.45074e-05,0.000000381
227.5,8939,367,25.7,1.45303e-05,0.000000381
229,8939,368,25.8,1.45526e-05,0.000000381
230.5,8939,368,25.8,1.45743e-05,0.000000382
232,8939,369,25.9,1.45954e-05,0.000000382
233.5,8939,369,25.9,1.46159e-05,0.000000382
235,8939,370,26,1.46358e-05,0.000000382
236.5,8939,370,26,1.46551e-05,0.000000382
238,8939,371,26.1,1.4674e-05,0.000000382
239.5,8939,371,26.1,1.46922e-05,0.000000382
241,8939,371,26.2,1.47099e-05,0.000000382
242.5,8939,372,26.2,1.47271e-05,0.000000382
244,8939,372,26.3,1.47438e-05,0.000000383
245.5,8939,373,26.3,1.47599e-05,0.000000383
247,8939,373,26.4,1.47755e-05,0.000000383
248.5,8939,374,26.4,1.47906e-05,0.000000383
250,8939,374,26.5,1.48051e-05,0.000000383
251.5,8939,374,26.6,1.48191e-05,0.000000383
253,8939,375,26.6,1.48325e-05,0.000000383
254.5,8939,375,26.7,1.48454e-05,0.000000383
256,8939,376,26.8,1.48576e-05,0.000000383
257.5,8939,376,26.8,1.48693e-05,0.000000383
259,8939,376,26.9,1.48803e-05,0.000000383
260.5,8939,377,27,1.48907e-05,0.000000383
262,8939,377,27,1.49005e-05,0.000000384
263.5,8939,378,27.1,1.49095e-05,0.000000384
265,8939,378,27.2,1.49179e-05,0.000000384
266.5,8939,378,27.2,1.49254e-05,0.000000384
268,8939,379,27.3,1.49322e-05,0.000000384
269.5,8939,379,27.4,1.49382e-05,0.000000384
271,8939,380,27.4,1.49434e-05,0.000000384
272.5,8939,380,27.5,1.49476e-05,0.000000384
274,8939,380,27.5,1.49509e-05,0.000000384
275.5,8939,381,27.6,1.49532e-05,0.000000384
277,8939,381,27.7,1.49544e-05,0.000000384
278.5,8939,381,27.7,1.49545e-05,0.000000384
280,8939,382,27.8,1.49535e-05,0.000000384
281.5,8939,382,27.9,1.49513e-05,0.000000384
283,8939,382,27.9,1.49478e-05,0.000000384
284.5,8939,383,28,1.4943e-05,0.000000385
286,8939,383,28,1.49367e-05,0.000000385
287.5,8939,383,28.1,1.49317e-05,0.000000385
289,8939,384,28.1,1.49317e-05,0.000000385
290.5,8939,384,28.2,1.49317e-05,0.000000385
292,8939,384,28.2,1.49317e-05,0.000000385
293.5,8939,385,28.3,1.49317e-05,0.000000385
295,8939,385,28.3,1.49317e-05,0.000000385
296.5,8939,385,28.4,1.49317e-05,0.000000385
298,8939,386,28.4,1.49317e-05,0.000000385
299.5,8939,386,28.5,1.49317e-05,0.000000385
300,8939,386,28.5,1.49317e-05,0.000000386