File: SolidProps/lib/COPPER-NICKEL_57-43.csv
T/K,rho/(kg/m3),cp/(J/(kg.K)),K/(W/(m.K)),alpha_thermal/(1/K),resistivity/(ohm.m)
1,8938,0.113,0.095,1.11427e-08,0.000000461
2.5,8938,0.264,0.409,4.6789e-08,0.000000461
4,8938,0.446,0.878,8.63011e-08,0.000000461
5.5,8938,0.673,1.43,1.29591e-07,0.000000461
7,8938,0.957,2.06,1.76572e-07,0.000000461
8.5,8938,1.31,2.76,2.27158e-07,0.000000461
10,8938,1.74,3.5,2.81262e-07,0.000000461
11.5,8938,2.14,4.25,3.388e-07,0.000000461
13,8938,2.65,5.02,3.99688e-07,0.000000461
14.5,8938,3.3,5.81,4.63841e-07,0.000000461
16,8938,4.12,6.6,5.31178e-07,0.000000461
17.5,8938,5.15,7.4,6.01616e-07,0.000000461
19,8938,6.43,8.18,6.75073e-07,0.000000461
20.5,8938,8.08,8.94,7.51469e-07,0.000000461
22,8938,10.2,9.66,8.30724e-07,0.000000461
23.5,8938,12.7,10.4,9.12759e-07,0.000000461
25,8938,15.4,11,9.97494e-07,0.000000461
26.5,8938,18.4,11.7,1.08485e-06,0.000000461
28,8938,21.8,12.3,1.17476e-06,0.000000461
29.5,8938,25.3,12.8,1.26713e-06,0.000000461
31,8938,29.5,13.3,1.3619e-06,0.000000461
32.5,8938,33.9,13.7,1.45899e-06,0.000000461
34,8938,38.6,14.1,1.55832e-06,0.000000461
35.5,8938,43.4,14.5,1.65983e-06,0.000000461
37,8938,48.5,14.8,1.76343e-06,0.000000461
38.5,8938,53.7,15.2,1.86906e-06,0.000000461
40,8938,59,15.5,1.97664e-06,0.000000461
41.5,8938,64.2,15.9,2.0861e-06,0.000000461
43,8938,69.4,16.4,2.19738e-06,0.000000461
44.5,8938,74.7,16.8,2.31041e-06,0.000000461
46,8938,80.1,17.2,2.42511e-06,0.000000461
47.5,8938,85.6,17.6,2.54142e-06,0.000000461
49,8938,91.2,17.9,2.65927e-06,0.000000461
50.5,8938,97,18.1,2.7786e-06,0.000000461
52,8938,103,18.2,2.89933e-06,0.000000462
53.5,8938,109,18.3,3.02141e-06,0.000000462
55,8938,115,18.3,3.14477e-06,0.000000462
56.5,8938,121,18.3,3.26934e-06,0.000000462
58,8938,127,18.3,3.39507e-06,0.000000462
59.5,8938,133,18.3,3.52189e-06,0.000000462
61,8938,139,18.3,3.64974e-06,0.000000463
62.5,8938,145,18.4,3.77856e-06,0.000000463
64,8938,151,18.5,3.90828e-06,0.000000463
65.5,8938,156,18.6,4.03886e-06,0.000000463
67,8938,162,18.7,4.17023e-06,0.000000463
68.5,8938,168,18.7,4.30233e-06,0.000000464
70,8938,173,18.8,4.43511e-06,0.000000464
71.5,8938,178,18.8,4.5685e-06,0.000000464
73,8938,183,18.9,4.70246e-06,0.000000464
74.5,8938,188,18.9,4.83693e-06,0.000000464
76,8938,193,19,4.97186e-06,0.000000464
77.5,8938,198,19,5.10718e-06,0.000000465
79,8938,202,19,5.24285e-06,0.000000465
80.5,8938,207,19.1,5.37882e-06,0.000000465
82,8938,211,19.1,5.51504e-06,0.000000465
83.5,8938,215,19.2,5.65144e-06,0.000000465
85,8938,220,19.3,5.78799e-06,0.000000466
86.5,8938,224,19.3,5.92464e-06,0.000000466
88,8938,227,19.4,6.06133e-06,0.000000466
89.5,8938,231,19.5,6.19802e-06,0.000000466
91,8938,234,19.5,6.33466e-06,0.000000466
92.5,8938,236,19.6,6.47121e-06,0.000000466
94,8938,239,19.7,6.60761e-06,0.000000466
95.5,8938,240,19.8,6.74383e-06,0.000000467
97,8938,242,19.8,6.87981e-06,0.000000467
98.5,8938,244,19.9,7.01553e-06,0.000000467
100,8938,245,20,7.15092e-06,0.000000467
101.5,8938,247,20.1,7.28596e-06,0.000000467
103,8938,249,20.1,7.42059e-06,0.000000467
104.5,8938,251,20.2,7.55479e-06,0.000000468
106,8938,254,20.3,7.6885e-06,0.000000468
107.5,8938,256,20.3,7.82169e-06,0.000000468
109,8938,258,20.4,7.95432e-06,0.000000468
110.5,8938,261,20.4,8.08636e-06,0.000000468
112,8938,263,20.5,8.21776e-06,0.000000468
113.5,8938,265,20.6,8.34849e-06,0.000000469
115,8938,268,20.6,8.47851e-06,0.000000469
116.5,8938,270,20.7,8.60779e-06,0.000000469
118,8938,273,20.7,8.7363e-06,0.000000469
119.5,8938,275,20.8,8.86399e-06,0.000000469
121,8938,277,20.8,8.99084e-06,0.00000047
122.5,8938,280,20.9,9.11682e-06,0.00000047
124,8938,282,20.9,9.24189e-06,0.00000047
125.5,8938,285,21,9.36603e-06,0.00000047
127,8938,287,21,9.4892e-06,0.000000471
128.5,8938,290,21,9.61137e-06,0.000000471
130,8938,292,21.1,9.73251e-06,0.000000471
131.5,8938,295,21.1,9.85261e-06,0.000000471
133,8938,297,21.2,9.97162e-06,0.000000471
134.5,8938,299,21.2,1.00895e-05,0.000000472
136,8938,302,21.3,1.02063e-05,0.000000472
137.5,8938,304,21.3,1.03219e-05,0.000000472
139,8938,307,21.3,1.04364e-05,0.000000472
140.5,8938,309,21.4,1.05496e-05,0.000000473
142,8938,311,21.4,1.06616e-05,0.000000473
143.5,8938,313,21.4,1.07723e-05,0.000000473
145,8938,316,21.5,1.08818e-05,0.000000473
146.5,8938,318,21.5,1.099e-05,0.000000473
148,8938,320,21.6,1.10969e-05,0.000000474
149.5,8938,322,21.6,1.12024e-05,0.000000474
151,8938,324,21.6,1.13066e-05,0.000000474
152.5,8938,325,21.7,1.14095e-05,0.000000474
154,8938,327,21.7,1.15109e-05,0.000000475
155.5,8938,328,21.7,1.16109e-05,0.000000475
157,8938,330,21.8,1.17096e-05,0.000000475
158.5,8938,331,21.8,1.18067e-05,0.000000475
160,8938,332,21.9,1.19025e-05,0.000000475
161.5,8938,333,21.9,1.19968e-05,0.000000475
163,8938,335,21.9,1.20896e-05,0.000000476
164.5,8938,336,22,1.21809e-05,0.000000476
166,8938,337,22,1.22707e-05,0.000000476
167.5,8938,338,22.1,1.2359e-05,0.000000476
169,8938,339,22.1,1.24458e-05,0.000000476
170.5,8938,340,22.1,1.25311e-05,0.000000477
172,8938,341,22.2,1.26148e-05,0.000000477
173.5,8938,342,22.2,1.2697e-05,0.000000477
175,8938,343,22.2,1.27776e-05,0.000000477
176.5,8938,344,22.3,1.28567e-05,0.000000477
178,8938,345,22.3,1.29342e-05,0.000000477
179.5,8938,346,22.3,1.30102e-05,0.000000478
181,8938,347,22.4,1.30845e-05,0.000000478
182.5,8938,348,22.4,1.31573e-05,0.000000478
184,8938,349,22.4,1.32286e-05,0.000000478
185.5,8938,349,22.5,1.32982e-05,0.000000478
187,8938,350,22.5,1.33662e-05,0.000000478
188.5,8938,351,22.5,1.34327e-05,0.000000479
190,8938,352,22.6,1.34976e-05,0.000000479
191.5,8938,352,22.6,1.35609e-05,0.000000479
193,8938,353,22.6,1.36226e-05,0.000000479
194.5,8938,354,22.7,1.36827e-05,0.000000479
196,8938,354,22.7,1.37413e-05,0.00000048
197.5,8938,355,22.7,1.37983e-05,0.00000048
199,8938,356,22.8,1.38537e-05,0.00000048
200.5,8938,356,22.8,1.39076e-05,0.00000048
202,8938,357,22.8,1.39598e-05,0.00000048
203.5,8938,358,22.9,1.40106e-05,0.00000048
205,8938,358,22.9,1.40598e-05,0.000000481
206.5,8938,359,22.9,1.41074e-05,0.000000481
208,8938,360,23,1.41536e-05,0.000000481
209.5,8938,360,23,1.41982e-05,0.000000481
211,8938,361,23,1.42413e-05,0.000000481
212.5,8938,362,23.1,1.42829e-05,0.000000481
214,8938,362,23.1,1.4323e-05,0.000000482
215.5,8938,363,23.1,1.43616e-05,0.000000482
217,8938,363,23.2,1.43988e-05,0.000000482
218.5,8938,364,23.2,1.44345e-05,0.000000482
220,8938,364,23.2,1.44688e-05,0.000000482
221.5,8938,365,23.3,1.45017e-05,0.000000483
223,8938,366,23.3,1.45331e-05,0.000000483
224.5,8938,366,23.3,1.45632e-05,0.000000483
226,8938,367,23.4,1.45919e-05,0.000000483
227.5,8938,367,23.4,1.46192e-05,0.000000483
229,8938,368,23.4,1.46452e-05,0.000000483
230.5,8938,368,23.5,1.46699e-05,0.000000484
232,8938,369,23.5,1.46933e-05,0.000000484
233.5,8938,369,23.5,1.47154e-05,0.000000484
235,8938,370,23.5,1.47363e-05,0.000000484
236.5,8938,370,23.6,1.47559e-05,0.000000484
238,8938,371,23.6,1.47744e-05,0.000000485
239.5,8938,371,23.6,1.47916e-05,0.000000485
241,8938,371,23.6,1.48077e-05,0.000000485
242.5,8938,372,23.7,1.48226e-05,0.000000485
244,8938,372,23.7,1.48364e-05,0.000000485
245.5,8938,373,23.7,1.48492e-05,0.000000485
247,8938,373,23.8,1.48609e-05,0.000000486
248.5,8938,374,23.8,1.48715e-05,0.000000486
250,8938,374,23.8,1.48812e-05,0.000000486
251.5,8938,374,23.8,1.48899e-05,0.000000486
253,8938,375,23.8,1.48976e-05,0.000000486
254.5,8938,375,23.8,1.49044e-05,0.000000487
256,8938,376,23.9,1.49104e-05,0.000000487
257.5,8938,376,23.9,0.00001491547,0.000000487
259,8938,376,23.9,1.49198e-05,0.000000487
260.5,8938,377,23.9,1.49232e-05,0.000000487
262,8938,377,23.9,1.4926e-05,0.000000488
263.5,8938,378,24,1.4928e-05,0.000000488
265,8938,378,24,1.49294e-05,0.000000488
266.5,8938,378,24,1.49301e-05,0.000000488
268,8938,379,24,1.49302e-05,0.000000488
269.5,8938,379,24,1.49298e-05,0.000000489
271,8938,380,24.1,1.49288e-05,0.000000489
272.5,8938,380,24.1,1.49273e-05,0.000000489
274,8938,380,24.1,1.49254e-05,0.000000489
275.5,8938,381,24.1,1.49231e-05,0.000000489
277,8938,381,24.2,1.49204e-05,0.000000489
278.5,8938,381,24.2,1.49174e-05,0.00000049
280,8938,382,24.2,1.49141e-05,0.00000049
281.5,8938,382,24.3,1.49141e-05,0.00000049
283,8938,382,24.3,1.49141e-05,0.00000049
284.5,8938,383,24.4,1.49141e-05,0.00000049
286,8938,383,24.4,1.49141e-05,0.000000491
287.5,8938,383,24.4,1.49141e-05,0.000000491
289,8938,384,24.5,1.49141e-05,0.000000491
290.5,8938,384,24.5,1.49141e-05,0.000000491
292,8938,384,24.6,1.49141e-05,0.000000491
293.5,8938,385,24.6,1.49141e-05,0.000000491
295,8938,385,24.7,1.49141e-05,0.000000492
296.5,8938,385,24.8,1.49141e-05,0.000000492
298,8938,386,24.8,1.49141e-05,0.000000492
299.5,8938,386,24.9,1.49141e-05,0.000000492
300,8938,386,24.9,1.49141e-05,0.000000492