File: SolidProps/lib/COPPER_PURE.csv
T/K,rho/(kg/m3),cp/(J/(kg.K)),K/(W/(m.K)),alpha_thermal/(1/K),resistivity/(ohm.m)
1,8960,0.012,93.6,2.4325e-08,2.61E-10
2.5,8960,0.0389,234,6.51361e-08,2.61E-10
4,8960,0.0904,374,1.12922e-07,2.61E-10
5.5,8960,0.177,515,1.67486e-07,2.61E-10
7,8960,0.321,653,2.28632e-07,2.61E-10
8.5,8960,0.545,790,2.96165e-07,2.61E-10
10,8960,0.87,922,3.69895e-07,2.62E-10
11.5,8960,1.3,1050,4.49631e-07,2.62E-10
13,8960,1.88,1170,5.35186e-07,2.62E-10
14.5,8960,2.63,1280,6.26374e-07,2.63E-10
16,8960,3.58,1380,7.23011e-07,2.65E-10
17.5,8960,4.75,1470,8.24916e-07,2.67E-10
19,8960,6.17,1550,9.31908e-07,2.7E-10
20.5,8960,7.93,1600,1.04381e-06,2.74E-10
22,8960,10.1,1640,1.16045e-06,2.79E-10
23.5,8960,12.6,1660,1.28165e-06,2.85E-10
25,8960,15.3,1660,1.40723e-06,2.92E-10
26.5,8960,18.4,1660,1.53704e-06,3.01E-10
28,8960,21.7,1640,1.67089e-06,3.12E-10
29.5,8960,25.2,1620,1.80863e-06,3.25E-10
31,8960,29.4,1580,1.9501e-06,3.41E-10
32.5,8960,33.8,1540,2.09512e-06,3.59E-10
34,8960,38.5,1480,2.24354e-06,3.8E-10
35.5,8960,43.4,1430,2.39521e-06,4.04E-10
37,8960,48.5,1370,2.54996e-06,4.3E-10
38.5,8960,53.7,1300,2.70764e-06,4.6E-10
40,8960,59,1240,2.8681e-06,4.92E-10
41.5,8960,64.2,1180,3.0312e-06,5.29E-10
43,8960,69.4,1130,3.19678e-06,5.7E-10
44.5,8960,74.7,1080,3.36469e-06,6.13E-10
46,8960,80.1,1030,3.5348e-06,6.59E-10
47.5,8960,85.6,980,3.70696e-06,7.08E-10
49,8960,91.2,934,3.88103e-06,7.6E-10
50.5,8960,97,891,4.05688e-06,8.15E-10
52,8960,103,853,4.23436e-06,8.72E-10
53.5,8960,109,817,4.41335e-06,9.32E-10
55,8960,115,784,4.5937e-06,9.94E-10
56.5,8960,121,754,4.77531e-06,0.00000000106
58,8960,127,726,4.95802e-06,0.00000000113
59.5,8960,133,700,5.14173e-06,0.0000000012
61,8960,139,676,5.3263e-06,0.00000000127
62.5,8960,144,655,5.51161e-06,0.00000000135
64,8960,149,635,5.69754e-06,0.00000000142
65.5,8960,155,617,5.88398e-06,0.00000000151
67,8960,160,601,6.07081e-06,0.00000000159
68.5,8960,165,586,6.25791e-06,0.00000000167
70,8960,170,573,6.44518e-06,0.00000000176
71.5,8960,175,560,6.6325e-06,0.00000000185
73,8960,181,548,6.81976e-06,0.00000000195
74.5,8960,186,538,7.00687e-06,0.00000000204
76,8960,192,528,7.19371e-06,0.00000000214
77.5,8960,197,520,7.38018e-06,0.00000000224
79,8960,202,512,7.56619e-06,0.00000000233
80.5,8960,206,505,7.75163e-06,0.00000000244
82,8960,211,498,7.93642e-06,0.00000000254
83.5,8960,215,492,8.12044e-06,0.00000000264
85,8960,218,486,8.30363e-06,0.00000000275
86.5,8960,222,481,8.48587e-06,0.00000000285
88,8960,226,476,8.66709e-06,0.00000000296
89.5,8960,229,472,8.8472e-06,0.00000000307
91,8960,232,468,9.02612e-06,0.00000000318
92.5,8960,236,464,9.20376e-06,0.00000000328
94,8960,239,460,9.38005e-06,0.00000000339
95.5,8960,242,457,9.5549e-06,0.0000000035
97,8960,245,454,9.72824e-06,0.00000000361
98.5,8960,248,452,9.9e-06,0.00000000372
100,8960,251,449,1.00701e-05,0.00000000384
101.5,8960,254,446,1.02385e-05,0.00000000395
103,8960,257,444,1.04051e-05,0.00000000406
104.5,8960,260,441,1.05698e-05,0.00000000416
106,8960,262,439,1.07326e-05,0.00000000427
107.5,8960,265,437,1.08934e-05,0.00000000438
109,8960,268,435,1.10521e-05,0.00000000449
110.5,8960,270,433,1.12088e-05,0.0000000046
112,8960,273,431,1.13633e-05,0.00000000471
113.5,8960,276,429,1.15156e-05,0.00000000482
115,8960,278,428,1.16656e-05,0.00000000493
116.5,8960,280,426,1.18133e-05,0.00000000504
118,8960,283,425,1.19586e-05,0.00000000515
119.5,8960,285,424,1.21016e-05,0.00000000526
121,8960,287,422,1.2242e-05,0.00000000537
122.5,8960,290,421,1.238e-05,0.00000000548
124,8960,292,420,1.25154e-05,0.00000000559
125.5,8960,294,419,1.26483e-05,0.00000000569
127,8960,296,418,1.27786e-05,0.0000000058
128.5,8960,298,417,1.29062e-05,0.00000000591
130,8960,300,417,1.30311e-05,0.00000000602
131.5,8960,302,416,1.31533e-05,0.00000000613
133,8960,304,415,1.32728e-05,0.00000000624
134.5,8960,306,415,1.33895e-05,0.00000000634
136,8960,308,414,1.35035e-05,0.00000000645
137.5,8960,310,414,1.36146e-05,0.00000000656
139,8960,311,413,1.37229e-05,0.00000000667
140.5,8960,313,413,1.38283e-05,0.00000000678
142,8960,315,413,1.39309e-05,0.00000000688
143.5,8960,316,413,1.40307e-05,0.00000000699
145,8960,318,412,1.41275e-05,0.0000000071
146.5,8960,319,412,1.42214e-05,0.0000000072
148,8960,321,412,1.43124e-05,0.00000000731
149.5,8960,323,412,1.44005e-05,0.00000000742
151,8960,324,412,1.44814e-05,0.00000000752
152.5,8960,325,411,1.45505e-05,0.00000000763
154,8960,327,410,1.46167e-05,0.00000000773
155.5,8960,328,410,1.46802e-05,0.00000000783
157,8960,329,409,1.47408e-05,0.00000000794
158.5,8960,331,409,1.47987e-05,0.00000000804
160,8960,332,409,1.48539e-05,0.00000000815
161.5,8960,333,408,1.49064e-05,0.00000000825
163,8960,334,408,1.49563e-05,0.00000000835
164.5,8960,336,407,1.50036e-05,0.00000000845
166,8960,337,407,1.50485e-05,0.00000000856
167.5,8960,338,407,1.50908e-05,0.00000000866
169,8960,339,406,1.51308e-05,0.00000000876
170.5,8960,340,406,1.51684e-05,0.00000000887
172,8960,341,406,1.52037e-05,0.00000000897
173.5,8960,342,405,1.52368e-05,0.00000000907
175,8960,343,405,1.52677e-05,0.00000000917
176.5,8960,344,405,1.52964e-05,0.00000000927
178,8960,345,405,1.53231e-05,0.00000000938
179.5,8960,346,404,1.53478e-05,0.00000000948
181,8960,347,404,1.53705e-05,0.00000000958
182.5,8960,347,404,1.53913e-05,0.00000000968
184,8960,348,404,1.54104e-05,0.00000000978
185.5,8960,349,404,1.54276e-05,0.00000000988
187,8960,350,404,1.54432e-05,0.00000000998
188.5,8960,351,403,1.54571e-05,0.0000000101
190,8960,351,403,1.54695e-05,0.0000000102
191.5,8960,352,403,1.54803e-05,0.0000000103
193,8960,353,403,1.54897e-05,0.0000000104
194.5,8960,354,403,1.54977e-05,0.0000000105
196,8960,354,403,1.55045e-05,0.0000000106
197.5,8960,355,403,1.55099e-05,0.0000000107
199,8960,356,403,1.55142e-05,0.0000000108
200.5,8960,356,402,1.55174e-05,0.0000000109
202,8960,357,402,1.55195e-05,0.000000011
203.5,8960,358,402,1.55207e-05,0.0000000111
205,8960,358,402,1.55209e-05,0.0000000112
206.5,8960,359,402,1.55203e-05,0.0000000113
208,8960,360,402,1.55188e-05,0.0000000114
209.5,8960,360,401,1.55166e-05,0.0000000115
211,8960,361,401,1.55158e-05,0.0000000116
212.5,8960,362,401,1.55158e-05,0.0000000117
214,8960,362,401,1.55158e-05,0.0000000118
215.5,8960,363,401,1.55158e-05,0.0000000119
217,8960,363,401,1.55158e-05,0.000000012
218.5,8960,364,400,1.55158e-05,0.0000000121
220,8960,364,400,1.55158e-05,0.0000000122
221.5,8960,365,400,1.55158e-05,0.0000000123
223,8960,366,400,1.55158e-05,0.0000000124
224.5,8960,366,400,1.55158e-05,0.0000000125
226,8960,367,400,1.55158e-05,0.0000000126
227.5,8960,367,399,1.55158e-05,0.0000000127
229,8960,368,399,1.55158e-05,0.0000000128
230.5,8960,368,399,1.55158e-05,0.0000000129
232,8960,369,399,1.55158e-05,0.000000013
233.5,8960,369,399,1.55158e-05,0.0000000131
235,8960,370,399,1.55158e-05,0.0000000132
236.5,8960,370,399,1.55158e-05,0.0000000133
238,8960,371,399,1.55158e-05,0.0000000134
239.5,8960,371,398,1.55158e-05,0.0000000135
241,8960,371,398,1.55158e-05,0.0000000136
242.5,8960,372,398,1.55158e-05,0.0000000137
244,8960,372,398,1.55158e-05,0.0000000138
245.5,8960,373,398,1.55158e-05,0.0000000139
247,8960,373,398,1.55158e-05,0.000000014
248.5,8960,374,398,1.55158e-05,0.0000000141
250,8960,374,398,1.55158e-05,0.0000000142
251.5,8960,374,397,1.55158e-05,0.0000000143
253,8960,375,397,1.55158e-05,0.0000000144
254.5,8960,375,397,1.55158e-05,0.0000000145
256,8960,376,397,1.55158e-05,0.0000000146
257.5,8960,376,397,1.55158e-05,0.0000000147
259,8960,376,397,1.55158e-05,0.0000000148
260.5,8960,377,397,1.55158e-05,0.0000000149
262,8960,377,397,1.55158e-05,0.000000015
263.5,8960,378,396,1.55158e-05,0.0000000151
265,8960,378,396,1.55158e-05,0.0000000152
266.5,8960,378,396,1.55158e-05,0.0000000153
268,8960,379,396,1.55158e-05,0.0000000154
269.5,8960,379,396,1.55158e-05,0.0000000155
271,8960,380,396,1.55158e-05,0.0000000156
272.5,8960,380,396,1.55158e-05,0.0000000157
274,8960,380,396,1.55158e-05,0.0000000158
275.5,8960,381,396,1.55158e-05,0.0000000159
277,8960,381,395,1.55158e-05,0.000000016
278.5,8960,381,395,1.55158e-05,0.0000000161
280,8960,382,395,1.55158e-05,0.0000000162
281.5,8960,382,395,1.55158e-05,0.0000000163
283,8960,382,395,1.55158e-05,0.0000000164
284.5,8960,383,395,1.55158e-05,0.0000000165
286,8960,383,395,1.55158e-05,0.0000000166
287.5,8960,383,395,1.55158e-05,0.0000000167
289,8960,384,395,1.55158e-05,0.0000000168
290.5,8960,384,394,1.55158e-05,0.0000000169
292,8960,384,394,1.55158e-05,0.000000017
293.5,8960,385,394,1.55158e-05,0.0000000171
295,8960,385,394,1.55158e-05,0.0000000172
296.5,8960,385,394,1.55158e-05,0.0000000173
298,8960,386,394,1.55158e-05,0.0000000174
299.5,8960,386,394,1.55158e-05,0.0000000175
300,8960,386,394,1.55158e-05,0.0000000175