File: SolidProps/lib/EPOXY.csv
T/K,rho/(kg/m3),cp/(J/(kg.K)),K/(W/(m.K)),alpha_thermal/(1/K),resistivity/(ohm.m)
1,1150,0.03,0.016,1.31895e-06,0
2.5,1150,0.361,0.0406,2.47447e-06,0
4,1150,1.56,0.0479,3.59413e-06,0
5.5,1150,4.42,0.0526,4.67867e-06,0
7,1150,8.8,0.0555,5.72882e-06,0
8.5,1150,14.5,0.0565,6.74529e-06,0
10,1150,21.3,0.0562,7.72881e-06,0
11.5,1150,29,0.0584,8.68009e-06,0
13,1150,37.4,0.0605,9.59982e-06,0
14.5,1150,46.6,0.0626,1.04887e-05,0
16,1150,56.3,0.0647,1.13475e-05,0
17.5,1150,66.5,0.0668,1.21768e-05,0
19,1150,76.9,0.0687,1.29773e-05,0
20.5,1150,87.3,0.0706,1.37497e-05,0
22,1150,97.2,0.0722,1.44947e-05,0
23.5,1150,107,0.0737,1.5213e-05,0
25,1150,117,0.0752,1.59051e-05,0
26.5,1150,127,0.0767,1.65718e-05,0
28,1150,137,0.0781,1.72138e-05,0
29.5,1150,147,0.0795,1.78316e-05,0
31,1150,156,0.081,1.84258e-05,0
32.5,1150,165,0.0825,1.89973e-05,0
34,1150,174,0.084,1.95464e-05,0
35.5,1150,183,0.0855,2.0074e-05,0
37,1150,192,0.087,2.05805e-05,0
38.5,1150,201,0.0885,2.10667e-05,0
40,1150,210,0.09,2.15331e-05,0
41.5,1150,219,0.0915,2.19803e-05,0
43,1150,228,0.0931,2.24089e-05,0
44.5,1150,237,0.0946,2.28196e-05,0
46,1150,246,0.0961,2.32128e-05,0
47.5,1150,255,0.0976,2.35892e-05,0
49,1150,264,0.099,2.39493e-05,0
50.5,1150,273,0.1,2.42937e-05,0
52,1150,282,0.102,2.46231e-05,0
53.5,1150,291,0.103,2.49378e-05,0
55,1150,300,0.104,2.52385e-05,0
56.5,1150,308,0.106,2.55258e-05,0
58,1150,317,0.107,2.58001e-05,0
59.5,1150,325,0.108,2.60621e-05,0
61,1150,333,0.109,2.63122e-05,0
62.5,1150,341,0.111,2.65509e-05,0
64,1150,349,0.112,2.67788e-05,0
65.5,1150,356,0.113,2.69965e-05,0
67,1150,364,0.114,2.72043e-05,0
68.5,1150,372,0.116,2.74028e-05,0
70,1150,380,0.117,2.75925e-05,0
71.5,1150,389,0.118,2.77739e-05,0
73,1150,398,0.119,2.79475e-05,0
74.5,1150,407,0.121,2.81138e-05,0
76,1150,416,0.122,2.82732e-05,0
77.5,1150,425,0.123,2.84262e-05,0
79,1150,434,0.124,2.85733e-05,0
80.5,1150,443,0.125,2.87148e-05,0
82,1150,450,0.127,2.88514e-05,0
83.5,1150,458,0.128,2.89834e-05,0
85,1150,466,0.13,2.91113e-05,0
86.5,1150,473,0.131,2.92355e-05,0
88,1150,480,0.133,2.93564e-05,0
89.5,1150,487,0.134,2.94745e-05,0
91,1150,495,0.136,2.95902e-05,0
92.5,1150,503,0.138,2.97039e-05,0
94,1150,510,0.14,2.98159e-05,0
95.5,1150,518,0.142,2.99269e-05,0
97,1150,525,0.144,3.0037e-05,0
98.5,1150,533,0.146,3.01467e-05,0
100,1150,540,0.148,3.02564e-05,0
101.5,1150,547,0.15,3.03665e-05,0
103,1150,555,0.151,3.04773e-05,0
104.5,1150,562,0.153,3.05893e-05,0
106,1150,570,0.155,3.07027e-05,0
107.5,1150,577,0.156,3.0818e-05,0
109,1150,584,0.158,3.09355e-05,0
110.5,1150,592,0.159,3.10556e-05,0
112,1150,599,0.161,3.11786e-05,0
113.5,1150,607,0.162,3.13047e-05,0
115,1150,614,0.164,3.14345e-05,0
116.5,1150,621,0.165,3.15682e-05,0
118,1150,628,0.166,3.1706e-05,0
119.5,1150,636,0.168,3.18484e-05,0
121,1150,643,0.169,3.19957e-05,0
122.5,1150,650,0.17,3.21481e-05,0
124,1150,657,0.171,3.23059e-05,0
125.5,1150,665,0.172,3.24695e-05,0
127,1150,672,0.173,3.26391e-05,0
128.5,1150,679,0.174,3.2815e-05,0
130,1150,686,0.175,3.29976e-05,0
131.5,1150,693,0.176,3.31869e-05,0
133,1150,700,0.177,3.33835e-05,0
134.5,1150,708,0.178,3.35874e-05,0
136,1150,715,0.179,3.3799e-05,0
137.5,1150,722,0.18,3.40184e-05,0
139,1150,729,0.181,3.42461e-05,0
140.5,1150,736,0.182,3.44821e-05,0
142,1150,743,0.182,3.47267e-05,0
143.5,1150,750,0.183,3.49802e-05,0
145,1150,757,0.184,3.52427e-05,0
146.5,1150,764,0.184,3.55145e-05,0
148,1150,771,0.185,3.57959e-05,0
149.5,1150,778,0.186,3.60869e-05,0
151,1150,785,0.186,3.63879e-05,0
152.5,1150,792,0.187,3.66989e-05,0
154,1150,798,0.188,3.70203e-05,0
155.5,1150,805,0.188,3.73521e-05,0
157,1150,812,0.189,3.76947e-05,0
158.5,1150,819,0.189,3.8048e-05,0
160,1150,826,0.19,3.84123e-05,0
161.5,1150,833,0.191,3.87878e-05,0
163,1150,840,0.191,3.91747e-05,0
164.5,1150,846,0.192,3.9573e-05,0
166,1150,853,0.192,3.99829e-05,0
167.5,1150,860,0.193,4.04046e-05,0
169,1150,866,0.193,4.08382e-05,0
170.5,1150,873,0.193,4.12838e-05,0
172,1150,880,0.194,4.17415e-05,0
173.5,1150,887,0.194,4.22116e-05,0
175,1150,893,0.195,4.2694e-05,0
176.5,1150,900,0.195,4.31889e-05,0
178,1150,906,0.195,4.36965e-05,0
179.5,1150,913,0.196,4.42167e-05,0
181,1150,919,0.196,4.47497e-05,0
182.5,1150,926,0.197,4.52955e-05,0
184,1150,932,0.197,4.58543e-05,0
185.5,1150,939,0.197,4.64262e-05,0
187,1150,945,0.197,4.70111e-05,0
188.5,1150,952,0.198,4.76092e-05,0
190,1150,958,0.198,4.82206e-05,0
191.5,1150,964,0.198,4.88452e-05,0
193,1150,971,0.199,4.94831e-05,0
194.5,1150,977,0.199,5.01344e-05,0
196,1150,983,0.199,5.07991e-05,0
197.5,1150,990,0.2,5.14772e-05,0
199,1150,996,0.2,5.21688e-05,0
200.5,1150,1000,0.2,5.28739e-05,0
202,1150,1010,0.201,5.35924e-05,0
203.5,1150,1010,0.201,5.43245e-05,0
205,1150,1020,0.201,5.507e-05,0
206.5,1150,1030,0.202,5.58291e-05,0
208,1150,1030,0.202,5.66017e-05,0
209.5,1150,1040,0.202,5.73878e-05,0
211,1150,1040,0.203,5.81873e-05,0
212.5,1150,1050,0.203,5.90003e-05,0
214,1150,1060,0.204,5.98267e-05,0
215.5,1150,1060,0.204,6.06664e-05,0
217,1150,1070,0.204,6.15196e-05,0
218.5,1150,1070,0.205,6.2386e-05,0
220,1150,1080,0.205,6.32657e-05,0
221.5,1150,1080,0.205,6.41585e-05,0
223,1150,1090,0.206,6.50645e-05,0
224.5,1150,1100,0.206,6.59836e-05,0
226,1150,1100,0.206,6.69156e-05,0
227.5,1150,1110,0.207,6.78606e-05,0
229,1150,1110,0.207,6.88184e-05,0
230.5,1150,1120,0.207,6.97889e-05,0
232,1150,1120,0.208,7.07721e-05,0
233.5,1150,1130,0.208,7.17678e-05,0
235,1150,1140,0.208,7.27759e-05,0
236.5,1150,1140,0.209,7.37964e-05,0
238,1150,1150,0.209,7.48291e-05,0
239.5,1150,1150,0.209,7.58739e-05,0
241,1150,1160,0.209,7.69306e-05,0
242.5,1150,1160,0.21,7.79992e-05,0
244,1150,1170,0.21,7.90795e-05,0
245.5,1150,1170,0.21,8.01713e-05,0
247,1150,1180,0.21,8.12745e-05,0
248.5,1150,1180,0.211,8.23889e-05,0
250,1150,1190,0.211,8.35145e-05,0
251.5,1150,1200,0.211,8.46509e-05,0
253,1150,1200,0.211,8.57981e-05,0
254.5,1150,1210,0.212,8.69559e-05,0
256,1150,1210,0.212,8.81241e-05,0
257.5,1150,1220,0.212,8.93024e-05,0
259,1150,1220,0.212,9.04908e-05,0
260.5,1150,1230,0.213,9.1689e-05,0
262,1150,1230,0.213,9.28968e-05,0
263.5,1150,1240,0.213,9.41139e-05,0
265,1150,1240,0.213,9.53403e-05,0
266.5,1150,1250,0.213,9.65756e-05,0
268,1150,1250,0.213,9.78196e-05,0
269.5,1150,1260,0.214,9.90722e-05,0
271,1150,1260,0.214,0.000100333,0
272.5,1150,1270,0.214,0.000101602,0
274,1150,1270,0.214,0.000102878,0
275.5,1150,1280,0.214,0.000104163,0
277,1150,1280,0.214,0.000105454,0
278.5,1150,1290,0.215,0.000106752,0
280,1150,1290,0.215,0.000108057,0
281.5,1150,1300,0.215,0.000109369,0
283,1150,1300,0.215,0.000110687,0
284.5,1150,1310,0.215,0.00011201,0
286,1150,1310,0.215,0.00011334,0
287.5,1150,1320,0.215,0.000114674,0
289,1150,1320,0.215,0.000116014,0
290.5,1150,1330,0.215,0.000117358,0
292,1150,1330,0.216,0.000118706,0
293.5,1150,1340,0.216,0.000120059,0
295,1150,1340,0.216,0.000121415,0
296.5,1150,1350,0.216,0.000122775,0
298,1150,1350,0.216,0.000124138,0
299.5,1150,1360,0.216,0.000125503,0
300,1150,1360,0.216,0.000125959,0