File: SolidProps/lib/STAINLESS_STEEL_304L.csv
T/K,rho/(kg/m3),cp/(J/(kg.K)),K/(W/(m.K)),alpha_thermal/(1/K),resistivity/(ohm.m)
1,7900,0.464,0.042,0,0.00000049
2.5,7900,1.17,0.133,0,0.00000049
4,7900,1.88,0.227,0,0.00000049
5.5,7900,2.61,0.34,1.73885e-08,0.00000049
7,7900,3.37,0.47,5.48061e-08,0.00000049
8.5,7900,4.17,0.614,9.88479e-08,0.00000049
10,7900,5.02,0.77,1.49315e-07,0.00000049
11.5,7900,5.86,0.929,2.06013e-07,0.00000049
13,7900,6.76,1.09,2.68746e-07,0.00000049
14.5,7900,7.76,1.27,3.37322e-07,0.00000049
16,7900,8.88,1.45,4.11553e-07,0.000000491
17.5,7900,10.1,1.63,4.91251e-07,0.000000491
19,7900,11.5,1.82,5.7623e-07,0.000000491
20.5,7900,13.2,2.01,6.66308e-07,0.000000491
22,7900,15.1,2.21,7.61304e-07,0.000000492
23.5,7900,17.3,2.41,8.61038e-07,0.000000492
25,7900,19.6,2.61,9.65334e-07,0.000000493
26.5,7900,22.2,2.82,1.07402e-06,0.000000493
28,7900,25.1,3.02,1.18692e-06,0.000000494
29.5,7900,28.2,3.23,1.30386e-06,0.000000495
31,7900,31.6,3.44,1.42469e-06,0.000000495
32.5,7900,35.2,3.66,1.54922e-06,0.000000496
34,7900,39.2,3.87,1.67731e-06,0.000000497
35.5,7900,43.4,4.09,1.80878e-06,0.000000498
37,7900,47.9,4.3,1.94348e-06,0.000000498
38.5,7900,52.7,4.5,2.08125e-06,0.000000499
40,7900,57.8,4.7,2.22193e-06,0.0000005
41.5,7900,63.9,4.88,2.36539e-06,0.000000501
43,7900,70.3,5.05,2.51145e-06,0.000000502
44.5,7900,76.8,5.22,2.65998e-06,0.000000502
46,7900,83.3,5.38,2.81083e-06,0.000000503
47.5,7900,89.7,5.54,2.96385e-06,0.000000504
49,7900,96,5.7,3.11891e-06,0.000000505
50.5,7900,102,5.85,3.27586e-06,0.000000505
52,7900,106,6.01,3.43456e-06,0.000000506
53.5,7900,110,6.17,3.59489e-06,0.000000506
55,7900,114,6.32,3.75671e-06,0.000000507
56.5,7900,118,6.47,3.91988e-06,0.000000508
58,7900,122,6.61,4.08428e-06,0.000000509
59.5,7900,126,6.76,4.24979e-06,0.00000051
61,7900,132,6.89,4.41627e-06,0.000000511
62.5,7900,138,7.02,4.58361e-06,0.000000512
64,7900,143,7.14,4.75168e-06,0.000000514
65.5,7900,149,7.26,4.92037e-06,0.000000515
67,7900,155,7.38,5.08957e-06,0.000000517
68.5,7900,161,7.49,5.25915e-06,0.000000518
70,7900,167,7.6,5.42901e-06,0.00000052
71.5,7900,172,7.71,5.59904e-06,0.000000522
73,7900,176,7.81,5.82435e-06,0.000000523
74.5,7900,181,7.91,6.01995e-06,0.000000525
76,7900,185,8.01,6.21473e-06,0.000000526
77.5,7900,190,8.1,6.40853e-06,0.000000528
79,7900,194,8.2,6.60116e-06,0.000000529
80.5,7900,199,8.29,6.79247e-06,0.00000053
82,7900,204,8.38,6.9823e-06,0.000000532
83.5,7900,209,8.48,7.17052e-06,0.000000533
85,7900,214,8.57,7.35698e-06,0.000000534
86.5,7900,219,8.66,7.54156e-06,0.000000535
88,7900,224,8.74,7.72411e-06,0.000000537
89.5,7900,229,8.83,7.90454e-06,0.000000538
91,7900,232,8.92,8.08272e-06,0.000000539
92.5,7900,236,9,8.25855e-06,0.00000054
94,7900,239,9.08,8.43193e-06,0.000000541
95.5,7900,242,9.16,8.60277e-06,0.000000542
97,7900,245,9.24,8.77098e-06,0.000000543
98.5,7900,248,9.32,8.93649e-06,0.000000544
100,7900,250,9.4,9.09921e-06,0.000000545
101.5,7900,253,9.48,9.25908e-06,0.000000546
103,7900,256,9.55,9.41603e-06,0.000000548
104.5,7900,259,9.63,9.57001e-06,0.000000549
106,7900,262,9.7,9.72097e-06,0.00000055
107.5,7900,265,9.78,9.86886e-06,0.000000552
109,7900,268,9.85,1.00136e-05,0.000000553
110.5,7900,271,9.92,1.01553e-05,0.000000555
112,7900,274,9.99,1.02937e-05,0.000000556
113.5,7900,277,10.1,1.0429e-05,0.000000558
115,7900,280,10.1,1.0561e-05,0.000000559
116.5,7900,283,10.2,1.06898e-05,0.000000561
118,7900,286,10.3,1.08153e-05,0.000000562
119.5,7900,289,10.3,1.09375e-05,0.000000564
121,7900,292,10.4,1.10566e-05,0.000000566
122.5,7900,295,10.5,1.11723e-05,0.000000567
124,7900,298,10.5,1.12848e-05,0.000000569
125.5,7900,301,10.6,1.1394e-05,0.000000571
127,7900,304,10.7,1.15001e-05,0.000000573
128.5,7900,307,10.7,1.16029e-05,0.000000574
130,7900,310,10.8,1.17025e-05,0.000000576
131.5,7900,313,10.8,1.17989e-05,0.000000578
133,7900,315,10.9,1.18923e-05,0.00000058
134.5,7900,318,11,1.19825e-05,0.000000581
136,7900,321,11,1.20696e-05,0.000000583
137.5,7900,324,11.1,1.21538e-05,0.000000585
139,7900,327,11.1,1.22349e-05,0.000000587
140.5,7900,330,11.2,1.23131e-05,0.000000589
142,7900,332,11.2,1.23885e-05,0.00000059
143.5,7900,335,11.3,1.24609e-05,0.000000592
145,7900,338,11.3,1.25307e-05,0.000000594
146.5,7900,341,11.4,1.25976e-05,0.000000596
148,7900,343,11.5,1.2662e-05,0.000000598
149.5,7900,346,11.5,1.27237e-05,0.0000006
151,7900,349,11.6,1.27829e-05,0.000000601
152.5,7900,351,11.6,1.28396e-05,0.000000602
154,7900,354,11.7,1.28939e-05,0.000000604
155.5,7900,357,11.7,1.29459e-05,0.000000605
157,7900,359,11.8,1.29956e-05,0.000000606
158.5,7900,362,11.8,1.30432e-05,0.000000607
160,7900,364,11.9,1.30886e-05,0.000000609
161.5,7900,367,11.9,1.31321e-05,0.00000061
163,7900,369,12,1.31735e-05,0.000000611
164.5,7900,372,12,1.32131e-05,0.000000612
166,7900,374,12.1,1.3251e-05,0.000000614
167.5,7900,376,12.1,1.32871e-05,0.000000615
169,7900,379,12.1,1.33216e-05,0.000000616
170.5,7900,381,12.2,1.33546e-05,0.000000617
172,7900,383,12.2,1.33861e-05,0.000000619
173.5,7900,386,12.3,1.34163e-05,0.00000062
175,7900,388,12.3,1.34452e-05,0.000000621
176.5,7900,390,12.4,1.34729e-05,0.000000622
178,7900,392,12.4,1.34996e-05,0.000000623
179.5,7900,394,12.5,1.35252e-05,0.000000624
181,7900,396,12.5,1.35499e-05,0.000000626
182.5,7900,398,12.5,1.35738e-05,0.000000627
184,7900,400,12.6,1.3597e-05,0.000000628
185.5,7900,402,12.6,1.36195e-05,0.000000629
187,7900,404,12.7,1.36415e-05,0.00000063
188.5,7900,406,12.7,1.3663e-05,0.000000631
190,7900,408,12.7,1.36842e-05,0.000000632
191.5,7900,410,12.8,1.3705e-05,0.000000634
193,7900,411,12.8,1.37257e-05,0.000000635
194.5,7900,413,12.9,1.37462e-05,0.000000636
196,7900,415,12.9,1.37667e-05,0.000000637
197.5,7900,416,12.9,1.37873e-05,0.000000638
199,7900,418,13,1.3808e-05,0.000000639
200.5,7900,419,13,1.3829e-05,0.00000064
202,7900,420,13,1.38502e-05,0.000000642
203.5,7900,422,13.1,1.38719e-05,0.000000643
205,7900,423,13.1,1.3894e-05,0.000000644
206.5,7900,424,13.2,1.39166e-05,0.000000645
208,7900,424,13.2,1.39399e-05,0.000000646
209.5,7900,425,13.2,1.39639e-05,0.000000647
211,7900,426,13.3,1.39886e-05,0.000000649
212.5,7900,427,13.3,1.40142e-05,0.00000065
214,7900,428,13.3,1.40407e-05,0.000000651
215.5,7900,429,13.4,1.40681e-05,0.000000652
217,7900,429,13.4,1.40966e-05,0.000000653
218.5,7900,430,13.4,1.41262e-05,0.000000654
220,7900,431,13.5,1.41569e-05,0.000000656
221.5,7900,431,13.5,1.41889e-05,0.000000657
223,7900,432,13.5,1.42221e-05,0.000000658
224.5,7900,432,13.6,1.42566e-05,0.000000659
226,7900,433,13.6,1.42925e-05,0.00000066
227.5,7900,433,13.6,1.43299e-05,0.000000662
229,7900,434,13.7,1.43686e-05,0.000000663
230.5,7900,434,13.7,1.44089e-05,0.000000664
232,7900,435,13.7,1.44506e-05,0.000000665
233.5,7900,435,13.7,1.44939e-05,0.000000666
235,7900,436,13.8,1.45389e-05,0.000000668
236.5,7900,436,13.8,1.45854e-05,0.000000669
238,7900,436,13.8,1.46335e-05,0.00000067
239.5,7900,437,13.9,1.46833e-05,0.000000671
241,7900,437,13.9,1.47347e-05,0.000000673
242.5,7900,437,13.9,1.47878e-05,0.000000674
244,7900,438,14,1.48426e-05,0.000000675
245.5,7900,438,14,1.4899e-05,0.000000676
247,7900,438,14,1.49572e-05,0.000000677
248.5,7900,439,14,1.50169e-05,0.000000679
250,7900,439,14.1,1.50783e-05,0.00000068
251.5,7900,439,14.1,1.51414e-05,0.000000681
253,7900,439,14.1,1.5206e-05,0.000000683
254.5,7900,439,14.2,1.52722e-05,0.000000684
256,7900,439,14.2,1.534e-05,0.000000685
257.5,7900,439,14.2,1.54092e-05,0.000000687
259,7900,440,14.2,1.54799e-05,0.000000688
260.5,7900,440,14.3,1.55521e-05,0.000000689
262,7900,440,14.3,1.56255e-05,0.000000691
263.5,7900,440,14.3,1.57003e-05,0.000000692
265,7900,441,14.4,1.57763e-05,0.000000693
266.5,7900,441,14.4,1.58535e-05,0.000000694
268,7900,442,14.4,1.59318e-05,0.000000696
269.5,7900,442,14.4,1.6011e-05,0.000000697
271,7900,443,14.5,1.60912e-05,0.000000698
272.5,7900,444,14.5,1.61722e-05,0.0000007
274,7900,445,14.5,1.62539e-05,0.000000701
275.5,7900,445,14.5,1.63362e-05,0.000000702
277,7900,446,14.6,1.64189e-05,0.000000703
278.5,7900,448,14.6,1.65021e-05,0.000000704
280,7900,449,14.6,1.65855e-05,0.000000706
281.5,7900,450,14.6,1.6669e-05,0.000000707
283,7900,452,14.7,1.67525e-05,0.000000708
284.5,7900,453,14.7,1.68358e-05,0.000000709
286,7900,455,14.7,1.69188e-05,0.00000071
287.5,7900,457,14.7,1.70012e-05,0.000000711
289,7900,458,14.8,1.7083e-05,0.000000713
290.5,7900,461,14.8,1.7164e-05,0.000000714
292,7900,463,14.8,1.72439e-05,0.000000715
293.5,7900,465,14.8,1.73226e-05,0.000000716
295,7900,468,14.8,1.73998e-05,0.000000717
296.5,7900,470,14.9,1.74754e-05,0.000000718
298,7900,473,14.9,1.75492e-05,0.000000719
299.5,7900,476,14.9,1.76208e-05,0.00000072
300,7900,477,14.9,1.76442e-05,0.00000072