File: SolidProps/lib/STAINLESS_STEEL_310L.csv
T/K,rho/(kg/m3),cp/(J/(kg.K)),K/(W/(m.K)),alpha_thermal/(1/K),resistivity/(ohm.m)
1,8027,0.62,0.0816,0,0.000000685
2.5,8027,1.43,0.216,0,0.000000684
4,8027,2.24,0.357,0,0.000000683
5.5,8027,3.01,0.504,0,0.000000683
7,8027,3.75,0.654,0,0.000000682
8.5,8027,4.49,0.807,0,0.000000682
10,8027,5.25,0.963,0,0.000000681
11.5,8027,6.02,1.12,0,0.000000681
13,8027,6.84,1.27,0,0.000000681
14.5,8027,7.74,1.43,0,0.00000068
16,8027,8.75,1.59,0,0.00000068
17.5,8027,9.88,1.75,0,0.00000068
19,8027,11.2,1.91,7.87248e-08,0.000000681
20.5,8027,12.6,2.08,1.86247e-07,0.000000681
22,8027,14.2,2.24,3.0417e-07,0.000000682
23.5,8027,16,2.41,4.31732e-07,0.000000683
25,8027,18.1,2.58,5.68201e-07,0.000000684
26.5,8027,20.5,2.75,7.12872e-07,0.000000685
28,8027,23.3,2.91,8.6507e-07,0.000000687
29.5,8027,26.2,3.07,1.02415e-06,0.000000688
31,8027,30.7,3.22,1.18949e-06,0.000000689
32.5,8027,35.5,3.36,1.36049e-06,0.00000069
34,8027,40.7,3.5,1.5366e-06,0.000000691
35.5,8027,46.2,3.63,1.71726e-06,0.000000693
37,8027,51.8,3.76,1.90196e-06,0.000000694
38.5,8027,57.6,3.89,2.0902e-06,0.000000695
40,8027,63.4,4.02,2.28152e-06,0.000000696
41.5,8027,68.6,4.16,2.47546e-06,0.000000697
43,8027,73.9,4.3,2.67161e-06,0.000000698
44.5,8027,79.1,4.43,2.86955e-06,0.000000699
46,8027,84.3,4.56,3.0689e-06,0.000000701
47.5,8027,89.5,4.69,3.2693e-06,0.000000702
49,8027,94.7,4.81,3.47041e-06,0.000000703
50.5,8027,100,4.93,3.6719e-06,0.000000704
52,8027,105,5.03,3.87347e-06,0.000000705
53.5,8027,111,5.14,4.07483e-06,0.000000706
55,8027,116,5.24,4.27571e-06,0.000000707
56.5,8027,122,5.33,4.47586e-06,0.000000709
58,8027,127,5.43,4.67503e-06,0.00000071
59.5,8027,132,5.52,4.87302e-06,0.000000711
61,8027,138,5.61,5.06961e-06,0.000000712
62.5,8027,143,5.7,5.26462e-06,0.000000713
64,8027,148,5.79,5.45786e-06,0.000000714
65.5,8027,153,5.88,5.64919e-06,0.000000715
67,8027,158,5.96,5.83844e-06,0.000000717
68.5,8027,163,6.05,6.02549e-06,0.000000718
70,8027,168,6.13,6.21021e-06,0.000000719
71.5,8027,172,6.21,6.39248e-06,0.00000072
73,8027,177,6.28,6.57222e-06,0.000000721
74.5,8027,182,6.36,6.74933e-06,0.000000722
76,8027,186,6.43,6.92373e-06,0.000000723
77.5,8027,190,6.5,7.09535e-06,0.000000724
79,8027,195,6.57,7.26415e-06,0.000000726
80.5,8027,199,6.64,7.43006e-06,0.000000727
82,8027,203,6.72,7.59306e-06,0.000000728
83.5,8027,207,6.79,7.7531e-06,0.000000729
85,8027,211,6.86,7.91016e-06,0.00000073
86.5,8027,215,6.93,8.06424e-06,0.000000731
88,8027,219,7,8.21531e-06,0.000000732
89.5,8027,223,7.07,8.36339e-06,0.000000734
91,8027,227,7.13,8.50847e-06,0.000000735
92.5,8027,230,7.19,8.65057e-06,0.000000736
94,8027,234,7.25,8.78971e-06,0.000000737
95.5,8027,237,7.31,8.9259e-06,0.000000738
97,8027,241,7.37,9.05917e-06,0.000000739
98.5,8027,244,7.42,9.18956e-06,0.00000074
100,8027,248,7.47,9.31711e-06,0.000000742
101.5,8027,251,7.53,9.44186e-06,0.000000743
103,8027,254,7.58,9.56384e-06,0.000000744
104.5,8027,257,7.64,9.68312e-06,0.000000745
106,8027,260,7.69,9.79973e-06,0.000000746
107.5,8027,264,7.74,9.91375e-06,0.000000747
109,8027,267,7.79,1.00252e-05,0.000000748
110.5,8027,270,7.84,1.01342e-05,0.000000749
112,8027,273,7.89,1.02408e-05,0.000000751
113.5,8027,276,7.94,1.0345e-05,0.000000752
115,8027,278,7.99,1.04469e-05,0.000000753
116.5,8027,281,8.04,1.05465e-05,0.000000754
118,8027,284,8.09,1.0644e-05,0.000000755
119.5,8027,287,8.14,1.07395e-05,0.000000756
121,8027,289,8.19,1.08329e-05,0.000000757
122.5,8027,292,8.23,1.09243e-05,0.000000759
124,8027,295,8.28,1.10139e-05,0.00000076
125.5,8027,297,8.32,1.11016e-05,0.000000761
127,8027,300,8.37,1.11876e-05,0.000000762
128.5,8027,302,8.41,1.12719e-05,0.000000763
130,8027,305,8.46,1.13546e-05,0.000000764
131.5,8027,307,8.5,1.14358e-05,0.000000765
133,8027,310,8.55,1.15155e-05,0.000000767
134.5,8027,312,8.59,1.15938e-05,0.000000768
136,8027,315,8.63,1.16707e-05,0.000000769
137.5,8027,317,8.68,1.17464e-05,0.00000077
139,8027,319,8.72,1.18209e-05,0.000000771
140.5,8027,321,8.76,1.18941e-05,0.000000772
142,8027,324,8.8,1.19663e-05,0.000000773
143.5,8027,326,8.84,1.20374e-05,0.000000774
145,8027,328,8.88,1.21076e-05,0.000000776
146.5,8027,330,8.92,1.21767e-05,0.000000777
148,8027,332,8.96,1.2245e-05,0.000000778
149.5,8027,334,9,1.23125e-05,0.000000779
151,8027,336,9.04,1.23791e-05,0.00000078
152.5,8027,339,9.08,1.2445e-05,0.000000781
154,8027,341,9.12,1.25102e-05,0.000000782
155.5,8027,343,9.16,1.25746e-05,0.000000784
157,8027,345,9.2,1.26385e-05,0.000000785
158.5,8027,347,9.24,1.27016e-05,0.000000786
160,8027,349,9.28,1.27642e-05,0.000000787
161.5,8027,351,9.32,1.28263e-05,0.000000788
163,8027,353,9.36,1.28878e-05,0.000000789
164.5,8027,355,9.4,1.29487e-05,0.00000079
166,8027,357,9.43,1.30092e-05,0.000000792
167.5,8027,359,9.47,1.30692e-05,0.000000793
169,8027,361,9.51,1.31286e-05,0.000000794
170.5,8027,362,9.55,1.31876e-05,0.000000795
172,8027,364,9.58,1.32462e-05,0.000000796
173.5,8027,366,9.62,1.33042e-05,0.000000797
175,8027,368,9.66,1.33618e-05,0.000000798
176.5,8027,370,9.69,1.34189e-05,0.000000799
178,8027,371,9.73,1.34756e-05,0.000000801
179.5,8027,373,9.76,1.35317e-05,0.000000802
181,8027,375,9.8,1.35874e-05,0.000000803
182.5,8027,377,9.84,1.36426e-05,0.000000804
184,8027,378,9.87,1.36972e-05,0.000000805
185.5,8027,380,9.91,1.37513e-05,0.000000806
187,8027,382,9.94,1.38048e-05,0.000000807
188.5,8027,383,9.98,1.38577e-05,0.000000809
190,8027,385,10,1.391e-05,0.00000081
191.5,8027,386,10,1.39617e-05,0.000000811
193,8027,388,10.1,1.40127e-05,0.000000812
194.5,8027,390,10.1,1.40631e-05,0.000000813
196,8027,391,10.1,1.41126e-05,0.000000814
197.5,8027,393,10.2,1.41615e-05,0.000000815
199,8027,394,10.2,1.42095e-05,0.000000817
200.5,8027,396,10.2,1.42567e-05,0.000000818
202,8027,397,10.3,1.4303e-05,0.000000819
203.5,8027,398,10.3,1.43484e-05,0.00000082
205,8027,400,10.3,1.43929e-05,0.000000821
206.5,8027,401,10.4,1.44363e-05,0.000000822
208,8027,403,10.4,1.44788e-05,0.000000823
209.5,8027,404,10.4,1.45202e-05,0.000000824
211,8027,405,10.5,1.45605e-05,0.000000826
212.5,8027,407,10.5,1.45996e-05,0.000000827
214,8027,408,10.5,1.46376e-05,0.000000828
215.5,8027,409,10.6,1.46744e-05,0.000000829
217,8027,410,10.6,1.47099e-05,0.00000083
218.5,8027,412,10.6,1.47441e-05,0.000000831
220,8027,413,10.7,1.4777e-05,0.000000832
221.5,8027,414,10.7,1.48086e-05,0.000000834
223,8027,415,10.7,1.48388e-05,0.000000835
224.5,8027,417,10.8,1.48676e-05,0.000000836
226,8027,418,10.8,1.48949e-05,0.000000837
227.5,8027,419,10.8,1.49208e-05,0.000000838
229,8027,420,10.9,1.49453e-05,0.000000839
230.5,8027,421,10.9,1.49682e-05,0.00000084
232,8027,423,10.9,1.49897e-05,0.000000842
233.5,8027,424,11,1.50097e-05,0.000000843
235,8027,425,11,1.50282e-05,0.000000844
236.5,8027,426,11,1.50451e-05,0.000000845
238,8027,427,11,1.50606e-05,0.000000846
239.5,8027,428,11.1,1.50746e-05,0.000000847
241,8027,429,11.1,1.50872e-05,0.000000848
242.5,8027,431,11.1,1.50983e-05,0.00000085
244,8027,432,11.2,1.51081e-05,0.000000851
245.5,8027,433,11.2,1.51164e-05,0.000000852
247,8027,434,11.2,1.51235e-05,0.000000853
248.5,8027,435,11.3,1.51293e-05,0.000000854
250,8027,436,11.3,1.51339e-05,0.000000855
251.5,8027,437,11.3,1.51374e-05,0.000000856
253,8027,438,11.3,1.51398e-05,0.000000857
254.5,8027,439,11.4,1.51413e-05,0.000000859
256,8027,440,11.4,1.51419e-05,0.00000086
257.5,8027,441,11.4,1.51418e-05,0.000000861
259,8027,442,11.5,1.51411e-05,0.000000862
260.5,8027,443,11.5,1.51398e-05,0.000000863
262,8027,444,11.5,1.51382e-05,0.000000864
263.5,8027,445,11.5,1.51364e-05,0.000000865
265,8027,446,11.6,1.51345e-05,0.000000867
266.5,8027,447,11.6,1.51328e-05,0.000000868
268,8027,448,11.6,1.51314e-05,0.000000869
269.5,8027,450,11.7,1.51306e-05,0.00000087
271,8027,451,11.7,1.51305e-05,0.000000871
272.5,8027,452,11.7,1.51305e-05,0.000000872
274,8027,453,11.7,1.51305e-05,0.000000873
275.5,8027,454,11.8,1.51305e-05,0.000000875
277,8027,455,11.8,1.51305e-05,0.000000876
278.5,8027,456,11.8,1.51305e-05,0.000000877
280,8027,457,11.9,1.51305e-05,0.000000878
281.5,8027,458,11.9,1.51305e-05,0.000000879
283,8027,459,11.9,1.51305e-05,0.00000088
284.5,8027,460,11.9,1.51305e-05,0.000000881
286,8027,462,12,1.51305e-05,0.000000882
287.5,8027,463,12,1.51305e-05,0.000000884
289,8027,464,12,1.51305e-05,0.000000885
290.5,8027,465,12,1.51305e-05,0.000000886
292,8027,466,12.1,1.51305e-05,0.000000887
293.5,8027,467,12.1,1.51305e-05,0.000000888
295,8027,469,12.1,1.51305e-05,0.000000889
296.5,8027,470,12.2,1.51305e-05,0.00000089
298,8027,471,12.2,1.51305e-05,0.000000892
299.5,8027,472,12.2,1.51305e-05,0.000000893
300,8027,473,12.2,1.51305e-05,0.000000893