File: SolidProps/lib/TITANIUM_PURE.csv
T/K,rho/(kg/m3),cp/(J/(kg.K)),K/(W/(m.K)),alpha_thermal/(1/K),resistivity/(ohm.m)
1,4540,0.07,0.4,0,0
2.5,4540,0.157,3.33,0,0.00000000459
4,4540,0.298,5.16,0,0.0000000184
5.5,4540,0.457,7.01,0,0.0000000257
7,4540,0.654,8.91,0,0.0000000275
8.5,4540,0.912,10.8,0,0.0000000255
10,4540,1.25,12.7,7.41004e-08,0.000000021
11.5,4540,1.66,14.8,1.57922e-07,0.0000000211
13,4540,2.19,16.9,2.41164e-07,0.0000000213
14.5,4540,2.87,19,3.2383e-07,0.0000000214
16,4540,3.71,21.1,4.05923e-07,0.0000000215
17.5,4540,4.76,23.1,4.87447e-07,0.0000000217
19,4540,6.02,25.1,5.68405e-07,0.0000000219
20.5,4540,7.57,26.8,6.48801e-07,0.0000000221
22,4540,9.45,28.3,7.28638e-07,0.0000000224
23.5,4540,11.6,29.7,8.07919e-07,0.0000000228
25,4540,14.1,30.9,8.86648e-07,0.0000000232
26.5,4540,16.8,32,9.64828e-07,0.0000000237
28,4540,19.9,32.9,1.04246e-06,0.0000000242
29.5,4540,23.2,33.8,1.11955e-06,0.0000000248
31,4540,27.2,34.4,1.19611e-06,0.0000000255
32.5,4540,31.4,34.9,1.27213e-06,0.0000000263
34,4540,36,35.4,1.34761e-06,0.0000000271
35.5,4540,40.9,35.7,1.42257e-06,0.000000028
37,4540,46,35.9,1.497e-06,0.000000029
38.5,4540,51.4,36,1.57091e-06,0.00000003
40,4540,57.1,36,1.6443e-06,0.000000031
41.5,4540,63,35.9,1.71718e-06,0.000000032
43,4540,69.2,35.7,1.78955e-06,0.000000033
44.5,4540,75.5,35.5,1.8614e-06,0.000000034
46,4540,82,35.3,1.93275e-06,0.0000000352
47.5,4540,88.7,35,2.0036e-06,0.0000000363
49,4540,95.4,34.7,2.07396e-06,0.0000000376
50.5,4540,102,34.4,2.14381e-06,0.000000039
52,4540,109,34.3,2.21318e-06,0.0000000406
53.5,4540,116,34.1,2.28206e-06,0.0000000422
55,4540,123,34,2.35045e-06,0.000000044
56.5,4540,130,33.8,2.41836e-06,0.0000000457
58,4540,137,33.7,2.48579e-06,0.0000000475
59.5,4540,144,33.6,2.55275e-06,0.0000000494
61,4540,151,33.4,2.61924e-06,0.0000000512
62.5,4540,158,33.3,2.68526e-06,0.000000053
64,4540,164,33.1,2.75082e-06,0.0000000548
65.5,4540,170,33,2.81591e-06,0.0000000566
67,4540,177,32.8,2.88055e-06,0.0000000584
68.5,4540,183,32.7,2.94473e-06,0.0000000602
70,4540,189,32.5,3.00846e-06,0.000000062
71.5,4540,195,32.3,3.07175e-06,0.0000000636
73,4540,202,32.2,3.13459e-06,0.0000000652
74.5,4540,208,32,3.19699e-06,0.0000000668
76,4540,214,31.9,3.25895e-06,0.0000000684
77.5,4540,220,31.7,3.32048e-06,0.0000000701
79,4540,226,31.6,3.38157e-06,0.0000000718
80.5,4540,232,31.5,3.44224e-06,0.0000000737
82,4540,238,31.3,3.50249e-06,0.000000076
83.5,4540,243,31.2,3.56232e-06,0.0000000783
85,4540,249,31.1,3.62173e-06,0.0000000806
86.5,4540,255,31,3.68072e-06,0.0000000829
88,4540,260,30.9,3.73931e-06,0.0000000851
89.5,4540,265,30.8,3.79748e-06,0.0000000874
91,4540,270,30.7,3.85526e-06,0.0000000891
92.5,4540,276,30.6,3.91263e-06,0.0000000908
94,4540,281,30.5,3.96961e-06,0.0000000923
95.5,4540,286,30.4,4.02619e-06,0.0000000937
97,4540,291,30.2,4.08239e-06,0.000000095
98.5,4540,295,30.1,4.13819e-06,0.0000000963
100,4540,300,30,4.19362e-06,0.0000000975
101.5,4540,305,29.9,4.24866e-06,0.0000000991
103,4540,309,29.8,4.30333e-06,0.000000101
104.5,4540,313,29.7,4.35762e-06,0.000000102
106,4540,318,29.6,4.41155e-06,0.000000104
107.5,4540,322,29.5,4.46511e-06,0.000000106
109,4540,326,29.3,4.5183e-06,0.000000108
110.5,4540,330,29.2,4.57114e-06,0.000000109
112,4540,333,29.1,4.62362e-06,0.000000111
113.5,4540,337,29,4.67575e-06,0.000000113
115,4540,341,28.9,4.72752e-06,0.000000115
116.5,4540,344,28.8,4.77895e-06,0.000000117
118,4540,348,28.7,4.83004e-06,0.000000119
119.5,4540,351,28.7,4.88079e-06,0.000000121
121,4540,355,28.6,4.9312e-06,0.000000123
122.5,4540,358,28.5,4.98128e-06,0.000000125
124,4540,361,28.4,5.03104e-06,0.000000127
125.5,4540,364,28.3,5.08046e-06,0.000000129
127,4540,367,28.2,5.12957e-06,0.000000132
128.5,4540,370,28.1,5.17835e-06,0.000000134
130,4540,373,28,5.22682e-06,0.000000136
131.5,4540,376,27.9,5.27497e-06,0.000000139
133,4540,379,27.9,5.32282e-06,0.000000141
134.5,4540,381,27.8,5.37036e-06,0.000000143
136,4540,384,27.7,5.4176e-06,0.000000146
137.5,4540,387,27.6,5.46454e-06,0.000000148
139,4540,389,27.5,5.51119e-06,0.000000151
140.5,4540,392,27.5,5.55754e-06,0.000000153
142,4540,394,27.4,5.60361e-06,0.000000156
143.5,4540,396,27.3,5.64939e-06,0.000000158
145,4540,399,27.2,5.69488e-06,0.000000161
146.5,4540,401,27.2,5.7401e-06,0.000000164
148,4540,403,27.1,5.78505e-06,0.000000166
149.5,4540,405,27,5.82972e-06,0.000000169
151,4540,408,27,5.87412e-06,0.000000172
152.5,4540,410,26.9,5.91826e-06,0.000000175
154,4540,412,26.8,5.96214e-06,0.000000178
155.5,4540,414,26.7,6.00576e-06,0.000000181
157,4540,417,26.7,6.04913e-06,0.000000185
158.5,4540,419,26.6,6.09224e-06,0.000000188
160,4540,421,26.6,6.1351e-06,0.000000191
161.5,4540,423,26.5,6.17772e-06,0.000000194
163,4540,425,26.4,6.2201e-06,0.000000198
164.5,4540,427,26.4,6.26224e-06,0.000000201
166,4540,429,26.3,6.30415e-06,0.000000204
167.5,4540,431,26.2,6.34583e-06,0.000000208
169,4540,433,26.2,6.38728e-06,0.000000211
170.5,4540,435,26.1,6.4285e-06,0.000000214
172,4540,437,26.1,6.4695e-06,0.000000218
173.5,4540,438,26,6.51029e-06,0.000000221
175,4540,440,25.9,6.55086e-06,0.000000225
176.5,4540,442,25.9,6.59122e-06,0.000000228
178,4540,443,25.8,6.63137e-06,0.000000231
179.5,4540,445,25.8,6.67132e-06,0.000000235
181,4540,447,25.7,6.71106e-06,0.000000238
182.5,4540,448,25.6,6.75061e-06,0.000000241
184,4540,450,25.6,6.78997e-06,0.000000245
185.5,4540,451,25.5,6.82914e-06,0.000000248
187,4540,453,25.5,6.86811e-06,0.000000252
188.5,4540,454,25.4,6.90691e-06,0.000000255
190,4540,456,25.4,6.94552e-06,0.000000258
191.5,4540,457,25.3,6.98396e-06,0.000000262
193,4540,459,25.3,7.02222e-06,0.000000265
194.5,4540,460,25.2,7.06032e-06,0.000000268
196,4540,462,25.1,7.09824e-06,0.000000271
197.5,4540,463,25.1,7.136e-06,0.000000275
199,4540,464,25,7.17361e-06,0.000000278
200.5,4540,465,25,7.21105e-06,0.000000281
202,4540,467,24.9,7.24834e-06,0.000000283
203.5,4540,468,24.9,7.28549e-06,0.000000285
205,4540,469,24.8,7.32248e-06,0.000000287
206.5,4540,470,24.8,7.35933e-06,0.000000289
208,4540,471,24.7,7.39605e-06,0.000000291
209.5,4540,473,24.7,7.43262e-06,0.000000293
211,4540,474,24.6,7.46906e-06,0.000000295
212.5,4540,475,24.6,7.50538e-06,0.000000297
214,4540,476,24.5,7.54156e-06,0.000000299
215.5,4540,477,24.5,7.57763e-06,0.000000301
217,4540,478,24.4,7.61357e-06,0.000000303
218.5,4540,479,24.4,7.6494e-06,0.000000305
220,4540,480,24.3,7.68512e-06,0.000000307
221.5,4540,481,24.3,7.72072e-06,0.000000309
223,4540,482,24.2,7.75622e-06,0.000000311
224.5,4540,483,24.2,7.79162e-06,0.000000313
226,4540,484,24.1,7.82692e-06,0.000000315
227.5,4540,485,24,7.86212e-06,0.000000318
229,4540,486,24,7.89723e-06,0.00000032
230.5,4540,487,23.9,7.93225e-06,0.000000322
232,4540,488,23.9,7.96718e-06,0.000000325
233.5,4540,489,23.8,8.00203e-06,0.000000327
235,4540,489,23.7,8.0368e-06,0.00000033
236.5,4540,490,23.7,8.0715e-06,0.000000332
238,4540,491,23.6,8.10613e-06,0.000000335
239.5,4540,492,23.5,8.14068e-06,0.000000338
241,4540,493,23.5,8.17517e-06,0.000000341
242.5,4540,494,23.4,8.2096e-06,0.000000344
244,4540,495,23.3,8.24397e-06,0.000000347
245.5,4540,495,23.2,8.27829e-06,0.00000035
247,4540,496,23.2,8.31255e-06,0.000000353
248.5,4540,497,23.1,8.34676e-06,0.000000357
250,4540,498,23,8.38093e-06,0.00000036
251.5,4540,499,22.9,8.41506e-06,0.000000365
253,4540,500,22.8,8.44914e-06,0.000000369
254.5,4540,501,22.7,8.4832e-06,0.000000374
256,4540,502,22.6,8.51722e-06,0.000000379
257.5,4540,503,22.5,8.55121e-06,0.000000383
259,4540,503,22.4,8.58518e-06,0.000000388
260.5,4540,504,22.3,8.61913e-06,0.000000393
262,4540,505,22.2,8.65305e-06,0.000000397
263.5,4540,506,22.1,8.68697e-06,0.000000402
265,4540,507,22,8.72087e-06,0.000000407
266.5,4540,508,21.9,8.75476e-06,0.000000411
268,4540,508,21.8,8.78865e-06,0.000000416
269.5,4540,509,21.7,8.82254e-06,0.00000042
271,4540,510,21.6,8.85643e-06,0.000000424
272.5,4540,511,21.5,8.89033e-06,0.000000429
274,4540,512,21.4,8.92423e-06,0.000000433
275.5,4540,512,21.3,8.95815e-06,0.000000437
277,4540,513,21.2,8.99208e-06,0.000000441
278.5,4540,514,21.2,9.02603e-06,0.000000444
280,4540,514,21.1,9.06001e-06,0.000000448
281.5,4540,515,21,9.09401e-06,0.000000452
283,4540,516,20.9,9.12804e-06,0.000000455
284.5,4540,516,20.8,9.1621e-06,0.000000458
286,4540,517,20.7,9.19619e-06,0.000000461
287.5,4540,518,20.6,9.23033e-06,0.000000464
289,4540,518,20.5,9.26451e-06,0.000000467
290.5,4540,519,20.5,9.29874e-06,0.000000469
292,4540,519,20.4,9.33301e-06,0.000000472
293.5,4540,520,20.3,9.36734e-06,0.000000474
295,4540,520,20.2,9.40172e-06,0.000000476
296.5,4540,521,20.2,9.43617e-06,0.000000477
298,4540,521,20.1,9.47067e-06,0.000000479
299.5,4540,522,20,9.50524e-06,0.00000048
300,4540,522,20,9.51678e-06,0.00000048